PE UV       SUBTECH     SPECTRUM    ASCII       PEDS        4.00        
   -1
BL16b30.asc
22/02/11
10:29:15.00
22/02/11
10:29:15.00
user
BL16b30
300.000000
1
Lambda 950
950L1311251
PerkinElmer UV WinLab 7.1.0.68 / 2.02.11 Lambda 900 UV/VIS/NIR, May 23 2018 11:23:04

0
0
3350/servo 860.8/2
0
0
UV/VIS
1
1
1
RBeamAtt,SBeamAtt,multi purpose optical bench
0
0
0
0
Program
Program
3350/servo 860.8/2
3350/1 860.8/1
3350/1 860.8/1
0
4
 
 
 
0
 
860.8
319.2
860.8
Front
100
 
S:100 R:100
 
0
0
0
 
0
 
 
 
0
 
 
0
0
0
0
0
 
 
 
 
0
0


0
0
#HDR
-1
-1
#GR
nm
%T
1.0
0.0
2500.000000
-4.000000
551
8
26.182132
4.214213
#DATA
2500.000000	25.450949
2496.000000	24.686328
2492.000000	24.572554
2488.000000	24.398693
2484.000000	25.081274
2480.000000	26.182132
2476.000000	25.175924
2472.000000	24.802887
2468.000000	25.466463
2464.000000	24.220607
2460.000000	24.474211
2456.000000	24.156083
2452.000000	24.674792
2448.000000	25.851611
2444.000000	26.075937
2440.000000	24.772693
2436.000000	25.048605
2432.000000	24.653231
2428.000000	25.531252
2424.000000	25.262310
2420.000000	25.230351
2416.000000	25.049995
2412.000000	25.062189
2408.000000	24.735964
2404.000000	25.248113
2400.000000	26.006074
2396.000000	24.298667
2392.000000	24.037371
2388.000000	24.331475
2384.000000	25.167155
2380.000000	25.239787
2376.000000	24.923634
2372.000000	24.555566
2368.000000	25.496506
2364.000000	25.168750
2360.000000	24.606204
2356.000000	23.763948
2352.000000	24.255454
2348.000000	25.102263
2344.000000	24.801504
2340.000000	24.476580
2336.000000	24.465374
2332.000000	24.751393
2328.000000	24.142601
2324.000000	24.180756
2320.000000	24.211494
2316.000000	24.368184
2312.000000	24.637957
2308.000000	24.470595
2304.000000	24.156111
2300.000000	23.947786
2296.000000	23.835568
2292.000000	24.237273
2288.000000	24.023449
2284.000000	24.054411
2280.000000	24.114021
2276.000000	23.889825
2272.000000	23.892793
2268.000000	23.875383
2264.000000	24.045873
2260.000000	24.103799
2256.000000	23.629101
2252.000000	23.492063
2248.000000	23.562255
2244.000000	23.889791
2240.000000	23.870460
2236.000000	23.870303
2232.000000	23.770097
2228.000000	23.675220
2224.000000	23.781640
2220.000000	23.609907
2216.000000	23.575608
2212.000000	23.655819
2208.000000	23.565767
2204.000000	23.599237
2200.000000	23.823421
2196.000000	23.652927
2192.000000	23.512923
2188.000000	23.916746
2184.000000	23.861004
2180.000000	23.783494
2176.000000	23.881658
2172.000000	23.692925
2168.000000	23.989131
2164.000000	24.053939
2160.000000	23.805912
2156.000000	23.907956
2152.000000	23.769435
2148.000000	23.860637
2144.000000	24.014556
2140.000000	23.891214
2136.000000	23.851007
2132.000000	23.922191
2128.000000	23.992213
2124.000000	23.826925
2120.000000	23.639101
2116.000000	23.690261
2112.000000	23.742247
2108.000000	23.597844
2104.000000	23.537544
2100.000000	23.529987
2096.000000	23.548131
2092.000000	23.468710
2088.000000	23.320874
2084.000000	23.269613
2080.000000	23.471835
2076.000000	23.453543
2072.000000	23.234938
2068.000000	23.250173
2064.000000	23.283530
2060.000000	23.202873
2056.000000	23.143037
2052.000000	23.053700
2048.000000	23.056700
2044.000000	23.029670
2040.000000	22.850057
2036.000000	22.913081
2032.000000	23.151093
2028.000000	23.117515
2024.000000	23.036679
2020.000000	23.038215
2016.000000	22.948315
2012.000000	22.885454
2008.000000	22.820100
2004.000000	22.868366
2000.000000	22.767794
1996.000000	22.738762
1992.000000	22.803320
1988.000000	22.761258
1984.000000	22.664830
1980.000000	22.569988
1976.000000	22.555060
1972.000000	22.477684
1968.000000	22.531192
1964.000000	22.409002
1960.000000	22.431559
1956.000000	22.440973
1952.000000	22.313796
1948.000000	22.389088
1944.000000	22.375404
1940.000000	22.313805
1936.000000	22.169038
1932.000000	22.107533
1928.000000	22.361524
1924.000000	22.279848
1920.000000	22.086324
1916.000000	22.084855
1912.000000	22.083028
1908.000000	22.142141
1904.000000	21.939783
1900.000000	22.004718
1896.000000	22.170044
1892.000000	22.156337
1888.000000	22.060674
1884.000000	22.131648
1880.000000	21.875384
1876.000000	21.937109
1872.000000	21.865216
1868.000000	21.855150
1864.000000	21.937516
1860.000000	21.917233
1856.000000	22.076973
1852.000000	21.826257
1848.000000	21.724028
1844.000000	21.821404
1840.000000	21.953792
1836.000000	21.728723
1832.000000	21.657557
1828.000000	21.806997
1824.000000	21.622294
1820.000000	21.703281
1816.000000	21.738643
1812.000000	21.657928
1808.000000	21.512622
1804.000000	21.593666
1800.000000	21.621591
1796.000000	21.582874
1792.000000	21.340794
1788.000000	21.358764
1784.000000	21.348642
1780.000000	21.476293
1776.000000	21.362711
1772.000000	21.363252
1768.000000	21.487839
1764.000000	21.368916
1760.000000	21.284203
1756.000000	21.425011
1752.000000	21.434453
1748.000000	21.160346
1744.000000	21.368610
1740.000000	21.268861
1736.000000	21.297841
1732.000000	21.177496
1728.000000	21.340476
1724.000000	21.339484
1720.000000	21.276291
1716.000000	21.296721
1712.000000	21.186224
1708.000000	21.144873
1704.000000	21.131046
1700.000000	21.294267
1696.000000	21.156433
1692.000000	21.111675
1688.000000	21.054333
1684.000000	21.222411
1680.000000	20.951110
1676.000000	21.167989
1672.000000	21.089297
1668.000000	21.145248
1664.000000	20.947804
1660.000000	21.068842
1656.000000	21.048209
1652.000000	20.898652
1648.000000	20.926485
1644.000000	20.974761
1640.000000	20.661005
1636.000000	20.878914
1632.000000	20.870115
1628.000000	20.943796
1624.000000	20.830505
1620.000000	20.880179
1616.000000	20.841700
1612.000000	20.574274
1608.000000	20.716096
1604.000000	20.843380
1600.000000	20.754325
1596.000000	20.721222
1592.000000	20.691557
1588.000000	20.769506
1584.000000	20.675512
1580.000000	20.670928
1576.000000	20.498785
1572.000000	20.604062
1568.000000	20.447564
1564.000000	20.552147
1560.000000	20.583834
1556.000000	20.586320
1552.000000	20.736128
1548.000000	20.554900
1544.000000	20.586714
1540.000000	20.426493
1536.000000	20.437455
1532.000000	20.449460
1528.000000	20.436394
1524.000000	20.520523
1520.000000	20.489587
1516.000000	20.423069
1512.000000	20.440595
1508.000000	20.461358
1504.000000	20.498180
1500.000000	20.444520
1496.000000	20.390953
1492.000000	20.288199
1488.000000	20.253700
1484.000000	20.329108
1480.000000	20.299220
1476.000000	20.430615
1472.000000	20.448385
1468.000000	20.393934
1464.000000	20.271474
1460.000000	20.270824
1456.000000	20.237119
1452.000000	20.293056
1448.000000	20.268246
1444.000000	20.246938
1440.000000	20.206070
1436.000000	20.296179
1432.000000	20.221198
1428.000000	20.301827
1424.000000	20.144440
1420.000000	20.135071
1416.000000	20.141625
1412.000000	20.229719
1408.000000	20.290339
1404.000000	20.280093
1400.000000	20.330045
1396.000000	20.275182
1392.000000	20.170789
1388.000000	20.196804
1384.000000	20.262649
1380.000000	20.145663
1376.000000	20.115923
1372.000000	20.106422
1368.000000	20.123128
1364.000000	20.274731
1360.000000	20.275485
1356.000000	20.184601
1352.000000	20.067468
1348.000000	20.139294
1344.000000	20.255221
1340.000000	20.246629
1336.000000	20.247440
1332.000000	20.167098
1328.000000	20.109846
1324.000000	20.073747
1320.000000	20.184280
1316.000000	20.269227
1312.000000	20.104037
1308.000000	19.987661
1304.000000	20.151823
1300.000000	20.142670
1296.000000	20.115706
1292.000000	20.113037
1288.000000	20.189898
1284.000000	20.263677
1280.000000	20.161295
1276.000000	20.088187
1272.000000	20.095947
1268.000000	20.057272
1264.000000	20.086256
1260.000000	20.057150
1256.000000	20.066095
1252.000000	20.022923
1248.000000	19.920193
1244.000000	19.974659
1240.000000	20.115508
1236.000000	20.086875
1232.000000	19.941790
1228.000000	19.972253
1224.000000	20.069401
1220.000000	20.148154
1216.000000	20.111811
1212.000000	20.081660
1208.000000	20.002999
1204.000000	20.044892
1200.000000	20.235016
1196.000000	20.266739
1192.000000	20.129004
1188.000000	20.044617
1184.000000	20.004168
1180.000000	20.162001
1176.000000	20.147233
1172.000000	20.193649
1168.000000	20.199655
1164.000000	20.149680
1160.000000	20.061776
1156.000000	20.159546
1152.000000	20.096459
1148.000000	20.236780
1144.000000	20.186381
1140.000000	20.209354
1136.000000	20.161427
1132.000000	20.176918
1128.000000	20.153425
1124.000000	20.177573
1120.000000	20.115899
1116.000000	20.141447
1112.000000	20.092650
1108.000000	20.044691
1104.000000	20.157236
1100.000000	20.140210
1096.000000	20.121009
1092.000000	19.955067
1088.000000	20.068667
1084.000000	20.342951
1080.000000	20.131114
1076.000000	20.072049
1072.000000	20.046713
1068.000000	20.236540
1064.000000	20.149783
1060.000000	20.126456
1056.000000	20.033318
1052.000000	20.212756
1048.000000	20.133501
1044.000000	19.986253
1040.000000	20.261790
1036.000000	20.230072
1032.000000	19.987449
1028.000000	20.051943
1024.000000	20.143062
1020.000000	20.158705
1016.000000	20.250961
1012.000000	20.129393
1008.000000	20.256846
1004.000000	20.145818
1000.000000	20.278044
996.000000	20.084126
992.000000	20.372251
988.000000	20.187972
984.000000	20.037412
980.000000	19.996082
976.000000	20.137443
972.000000	20.292646
968.000000	20.287055
964.000000	20.146329
960.000000	20.281782
956.000000	20.185516
952.000000	20.157631
948.000000	20.245787
944.000000	20.517327
940.000000	20.225342
936.000000	20.290538
932.000000	20.107335
928.000000	20.174821
924.000000	20.343931
920.000000	20.184815
916.000000	20.364065
912.000000	20.338130
908.000000	20.248070
904.000000	20.512830
900.000000	20.313813
896.000000	20.533010
892.000000	20.409139
888.000000	20.233870
884.000000	20.359712
880.000000	20.397709
876.000000	20.516620
872.000000	20.433519
868.000000	20.485722
864.000000	20.385314
860.000000	20.304632
856.000000	20.051940
852.000000	20.028975
848.000000	20.127296
844.000000	20.099013
840.000000	20.089155
836.000000	20.067498
832.000000	20.091544
828.000000	20.075913
824.000000	20.091389
820.000000	20.066633
816.000000	20.037838
812.000000	20.074895
808.000000	20.079208
804.000000	20.065920
800.000000	20.079029
796.000000	20.045663
792.000000	20.049203
788.000000	20.054232
784.000000	20.047848
780.000000	20.035528
776.000000	19.986829
772.000000	19.969145
768.000000	19.956638
764.000000	19.963131
760.000000	19.949517
756.000000	19.895176
752.000000	19.893763
748.000000	19.851019
744.000000	19.802750
740.000000	19.783639
736.000000	19.740623
732.000000	19.703328
728.000000	19.633936
724.000000	19.589549
720.000000	19.544422
716.000000	19.491451
712.000000	19.447322
708.000000	19.407482
704.000000	19.328098
700.000000	19.256026
696.000000	19.205542
692.000000	19.127318
688.000000	19.079908
684.000000	19.017439
680.000000	18.954755
676.000000	18.902722
672.000000	18.833043
668.000000	18.771474
664.000000	18.706029
660.000000	18.641357
656.000000	18.561157
652.000000	18.488512
648.000000	18.412832
644.000000	18.355156
640.000000	18.269886
636.000000	18.185980
632.000000	18.125151
628.000000	18.046321
624.000000	17.968856
620.000000	17.883080
616.000000	17.789042
612.000000	17.699993
608.000000	17.594727
604.000000	17.485500
600.000000	17.372998
596.000000	17.248348
592.000000	17.116691
588.000000	16.974697
584.000000	16.829691
580.000000	16.668549
576.000000	16.488822
572.000000	16.305346
568.000000	16.121255
564.000000	15.930884
560.000000	15.729838
556.000000	15.534241
552.000000	15.342470
548.000000	15.152851
544.000000	14.964590
540.000000	14.792345
536.000000	14.617083
532.000000	14.456180
528.000000	14.298370
524.000000	14.145289
520.000000	14.000944
516.000000	13.863545
512.000000	13.731242
508.000000	13.607812
504.000000	13.499378
500.000000	13.399699
496.000000	13.294164
492.000000	13.202287
488.000000	13.110064
484.000000	13.013580
480.000000	12.915899
476.000000	12.828162
472.000000	12.760597
468.000000	12.691701
464.000000	12.622833
460.000000	12.553019
456.000000	12.486731
452.000000	12.423103
448.000000	12.343642
444.000000	12.255955
440.000000	12.161494
436.000000	12.067303
432.000000	11.972450
428.000000	11.878551
424.000000	11.797222
420.000000	11.711897
416.000000	11.625226
412.000000	11.529714
408.000000	11.446597
404.000000	11.356157
400.000000	11.259643
396.000000	11.144623
392.000000	11.029801
388.000000	10.910629
384.000000	10.778191
380.000000	10.610573
376.000000	10.426272
372.000000	10.224460
368.000000	9.976747
364.000000	9.626075
360.000000	9.151386
356.000000	8.520574
352.000000	7.677869
348.000000	6.685607
344.000000	5.693771
340.000000	4.965602
336.000000	4.628981
332.000000	4.534870
328.000000	4.491027
324.000000	4.479405
320.000000	4.431148
316.000000	4.343317
312.000000	4.302484
308.000000	4.276235
304.000000	4.231489
300.000000	4.214213
