PE UV       SUBTECH     SPECTRUM    ASCII       PEDS        4.00        
   -1
CoatPart.asc
22/02/11
10:12:18.00
22/02/11
10:12:18.00
user
coated particles
300.000000
1
Lambda 950
950L1311251
PerkinElmer UV WinLab 7.1.0.68 / 2.02.11 Lambda 900 UV/VIS/NIR, May 23 2018 11:23:04

0
0
3350/servo 860.8/2
0
0
UV/VIS
1
1
1
RBeamAtt,SBeamAtt,multi purpose optical bench
0
0
0
0
Program
Program
3350/servo 860.8/2
3350/1 860.8/1
3350/1 860.8/1
0
4
 
 
 
0
 
860.8
319.2
860.8
Front
100
 
S:100 R:100
 
0
0
0
 
0
 
 
 
0
 
 
0
0
0
0
0
 
 
 
 
0
0


0
0
#HDR
-1
-1
#GR
nm
%T
1.0
0.0
2500.000000
-4.000000
551
8
23.004890
3.175109
#DATA
2500.000000	21.948881
2496.000000	22.444181
2492.000000	21.844395
2488.000000	22.814666
2484.000000	21.908651
2480.000000	22.438907
2476.000000	22.108611
2472.000000	21.698542
2468.000000	21.883960
2464.000000	22.113632
2460.000000	21.331897
2456.000000	21.111393
2452.000000	21.546463
2448.000000	22.288091
2444.000000	22.674259
2440.000000	22.579715
2436.000000	22.064812
2432.000000	21.335828
2428.000000	22.547708
2424.000000	21.630194
2420.000000	21.613006
2416.000000	23.004890
2412.000000	22.074150
2408.000000	21.697497
2404.000000	21.891667
2400.000000	22.145032
2396.000000	22.392471
2392.000000	22.118731
2388.000000	21.294387
2384.000000	21.510423
2380.000000	21.675400
2376.000000	21.369731
2372.000000	21.511544
2368.000000	22.364080
2364.000000	21.675730
2360.000000	21.735143
2356.000000	21.216532
2352.000000	21.042607
2348.000000	22.003428
2344.000000	21.882862
2340.000000	21.349375
2336.000000	20.950016
2332.000000	22.016026
2328.000000	21.701474
2324.000000	21.505322
2320.000000	21.058136
2316.000000	21.071913
2312.000000	21.161055
2308.000000	21.184895
2304.000000	21.143447
2300.000000	20.988254
2296.000000	20.722241
2292.000000	20.772820
2288.000000	21.050292
2284.000000	20.747310
2280.000000	20.758160
2276.000000	20.697790
2272.000000	20.719732
2268.000000	21.021425
2264.000000	20.769162
2260.000000	20.779616
2256.000000	20.655070
2252.000000	20.676021
2248.000000	20.677576
2244.000000	20.693984
2240.000000	20.647357
2236.000000	20.471022
2232.000000	20.548816
2228.000000	20.510226
2224.000000	20.713613
2220.000000	20.705199
2216.000000	20.598119
2212.000000	20.610965
2208.000000	20.280448
2204.000000	20.345403
2200.000000	20.852617
2196.000000	20.582060
2192.000000	20.416986
2188.000000	20.644887
2184.000000	20.662251
2180.000000	20.689261
2176.000000	20.681392
2172.000000	20.563932
2168.000000	20.564538
2164.000000	20.667114
2160.000000	20.618542
2156.000000	20.550216
2152.000000	20.440153
2148.000000	20.563547
2144.000000	20.568782
2140.000000	20.472496
2136.000000	20.552504
2132.000000	20.550454
2128.000000	20.419828
2124.000000	20.428703
2120.000000	20.349408
2116.000000	20.501073
2112.000000	20.560206
2108.000000	20.367327
2104.000000	20.263947
2100.000000	20.247230
2096.000000	20.314329
2092.000000	20.282868
2088.000000	20.138963
2084.000000	20.097728
2080.000000	20.206158
2076.000000	20.153405
2072.000000	20.091716
2068.000000	19.981453
2064.000000	19.890645
2060.000000	19.998292
2056.000000	19.895101
2052.000000	19.825394
2048.000000	19.848391
2044.000000	19.719514
2040.000000	19.616162
2036.000000	19.578732
2032.000000	19.748130
2028.000000	19.955440
2024.000000	19.730294
2020.000000	19.667890
2016.000000	19.629096
2012.000000	19.536103
2008.000000	19.484829
2004.000000	19.512848
2000.000000	19.546848
1996.000000	19.409264
1992.000000	19.367670
1988.000000	19.429259
1984.000000	19.258370
1980.000000	19.234093
1976.000000	19.304494
1972.000000	19.273239
1968.000000	19.330224
1964.000000	19.207023
1960.000000	19.186174
1956.000000	19.273714
1952.000000	19.146506
1948.000000	19.066754
1944.000000	18.981372
1940.000000	18.905957
1936.000000	18.960403
1932.000000	18.926437
1928.000000	18.940673
1924.000000	18.992062
1920.000000	18.883432
1916.000000	18.840333
1912.000000	18.885333
1908.000000	18.852878
1904.000000	18.683203
1900.000000	18.870185
1896.000000	18.896632
1892.000000	18.906016
1888.000000	18.876777
1884.000000	18.839546
1880.000000	18.818727
1876.000000	18.813694
1872.000000	18.584348
1868.000000	18.665032
1864.000000	18.623392
1860.000000	18.689504
1856.000000	18.719084
1852.000000	18.683781
1848.000000	18.528985
1844.000000	18.703613
1840.000000	18.408334
1836.000000	18.480430
1832.000000	18.490870
1828.000000	18.318280
1824.000000	18.409259
1820.000000	18.434958
1816.000000	18.491733
1812.000000	18.341805
1808.000000	18.440070
1804.000000	18.335175
1800.000000	18.358306
1796.000000	18.348481
1792.000000	18.114078
1788.000000	18.173859
1784.000000	18.130975
1780.000000	18.149206
1776.000000	18.287751
1772.000000	18.119153
1768.000000	18.449742
1764.000000	18.228507
1760.000000	18.172895
1756.000000	18.171570
1752.000000	18.105650
1748.000000	18.141339
1744.000000	18.214517
1740.000000	17.965093
1736.000000	18.031036
1732.000000	17.993202
1728.000000	18.240748
1724.000000	18.253347
1720.000000	18.139478
1716.000000	17.949918
1712.000000	18.322796
1708.000000	17.938091
1704.000000	17.936463
1700.000000	18.111415
1696.000000	17.931726
1692.000000	17.968655
1688.000000	18.035101
1684.000000	18.029322
1680.000000	17.717855
1676.000000	18.018070
1672.000000	18.016401
1668.000000	18.095810
1664.000000	17.845813
1660.000000	17.882557
1656.000000	17.871171
1652.000000	17.982087
1648.000000	17.855934
1644.000000	17.868521
1640.000000	17.575285
1636.000000	17.984073
1632.000000	17.798913
1628.000000	17.751788
1624.000000	17.907000
1620.000000	17.744004
1616.000000	17.839703
1612.000000	17.795460
1608.000000	17.792700
1604.000000	17.877455
1600.000000	17.666501
1596.000000	17.654848
1592.000000	17.688594
1588.000000	17.654085
1584.000000	17.540316
1580.000000	17.706414
1576.000000	17.699680
1572.000000	17.562947
1568.000000	17.419739
1564.000000	17.656253
1560.000000	17.532866
1556.000000	17.754840
1552.000000	17.835886
1548.000000	17.426220
1544.000000	17.454106
1540.000000	17.329167
1536.000000	17.472766
1532.000000	17.526858
1528.000000	17.543077
1524.000000	17.624957
1520.000000	17.470556
1516.000000	17.376564
1512.000000	17.429756
1508.000000	17.521517
1504.000000	17.552948
1500.000000	17.453538
1496.000000	17.462755
1492.000000	17.293859
1488.000000	17.341247
1484.000000	17.403345
1480.000000	17.331103
1476.000000	17.378397
1472.000000	17.300698
1468.000000	17.281056
1464.000000	17.381964
1460.000000	17.379359
1456.000000	17.366265
1452.000000	17.278008
1448.000000	17.271143
1444.000000	17.225304
1440.000000	17.251007
1436.000000	17.352643
1432.000000	17.145710
1428.000000	17.271287
1424.000000	17.291852
1420.000000	17.124567
1416.000000	17.083200
1412.000000	17.148657
1408.000000	17.297508
1404.000000	17.197758
1400.000000	17.122836
1396.000000	17.215974
1392.000000	17.065022
1388.000000	17.079192
1384.000000	17.154685
1380.000000	17.074995
1376.000000	17.107390
1372.000000	17.051538
1368.000000	17.023851
1364.000000	17.131125
1360.000000	17.018892
1356.000000	16.979535
1352.000000	17.003897
1348.000000	17.032073
1344.000000	17.105476
1340.000000	17.215446
1336.000000	17.211730
1332.000000	16.935280
1328.000000	16.888372
1324.000000	16.977844
1320.000000	17.024080
1316.000000	17.037558
1312.000000	16.971152
1308.000000	16.872907
1304.000000	16.904061
1300.000000	16.904370
1296.000000	16.902716
1292.000000	16.982157
1288.000000	16.918309
1284.000000	16.995575
1280.000000	16.962551
1276.000000	16.851790
1272.000000	16.986617
1268.000000	16.909804
1264.000000	16.927270
1260.000000	16.764198
1256.000000	16.732556
1252.000000	16.770740
1248.000000	16.741422
1244.000000	16.762995
1240.000000	16.706958
1236.000000	16.687981
1232.000000	16.789756
1228.000000	16.756817
1224.000000	16.856517
1220.000000	16.753275
1216.000000	16.662792
1212.000000	16.727412
1208.000000	16.635176
1204.000000	16.737995
1200.000000	16.823940
1196.000000	16.721300
1192.000000	16.741311
1188.000000	16.710933
1184.000000	16.591772
1180.000000	16.669332
1176.000000	16.724990
1172.000000	16.669558
1168.000000	16.760620
1164.000000	16.717481
1160.000000	16.603077
1156.000000	16.757759
1152.000000	16.494955
1148.000000	16.469460
1144.000000	16.582396
1140.000000	16.562437
1136.000000	16.633898
1132.000000	16.610420
1128.000000	16.659179
1124.000000	16.568981
1120.000000	16.373711
1116.000000	16.542742
1112.000000	16.437133
1108.000000	16.440709
1104.000000	16.499951
1100.000000	16.471721
1096.000000	16.239586
1092.000000	16.380345
1088.000000	16.299417
1084.000000	16.558562
1080.000000	16.299488
1076.000000	16.370246
1072.000000	16.444896
1068.000000	16.405426
1064.000000	16.305414
1060.000000	16.316981
1056.000000	16.408000
1052.000000	16.379904
1048.000000	16.423580
1044.000000	16.182097
1040.000000	16.416740
1036.000000	16.372599
1032.000000	16.057135
1028.000000	16.211090
1024.000000	16.360979
1020.000000	16.211553
1016.000000	16.270888
1012.000000	16.354617
1008.000000	16.177949
1004.000000	16.252739
1000.000000	16.239713
996.000000	16.024604
992.000000	16.286366
988.000000	16.225150
984.000000	16.073712
980.000000	16.038181
976.000000	16.050020
972.000000	16.490072
968.000000	16.253895
964.000000	16.159804
960.000000	16.077114
956.000000	16.146660
952.000000	15.934077
948.000000	16.093290
944.000000	16.217471
940.000000	16.099550
936.000000	16.129493
932.000000	15.744196
928.000000	16.035420
924.000000	16.051622
920.000000	15.887901
916.000000	15.919241
912.000000	16.042755
908.000000	15.942076
904.000000	15.958680
900.000000	16.117630
896.000000	16.011797
892.000000	15.847442
888.000000	15.853078
884.000000	15.742327
880.000000	15.653027
876.000000	15.829927
872.000000	15.694855
868.000000	15.865989
864.000000	15.918018
860.000000	15.621876
856.000000	15.451278
852.000000	15.487222
848.000000	15.444916
844.000000	15.413466
840.000000	15.418393
836.000000	15.421823
832.000000	15.395605
828.000000	15.366218
824.000000	15.307409
820.000000	15.297934
816.000000	15.299147
812.000000	15.290511
808.000000	15.229040
804.000000	15.221507
800.000000	15.215565
796.000000	15.188034
792.000000	15.172173
788.000000	15.130701
784.000000	15.113442
780.000000	15.101821
776.000000	15.056124
772.000000	15.050444
768.000000	15.038065
764.000000	15.015766
760.000000	15.009802
756.000000	14.965858
752.000000	14.963301
748.000000	14.915613
744.000000	14.900091
740.000000	14.878416
736.000000	14.848480
732.000000	14.816649
728.000000	14.792599
724.000000	14.781227
720.000000	14.737586
716.000000	14.718282
712.000000	14.695409
708.000000	14.661928
704.000000	14.648879
700.000000	14.604476
696.000000	14.582783
692.000000	14.547982
688.000000	14.523950
684.000000	14.495796
680.000000	14.473649
676.000000	14.434970
672.000000	14.400186
668.000000	14.372678
664.000000	14.347196
660.000000	14.315335
656.000000	14.275730
652.000000	14.258181
648.000000	14.225906
644.000000	14.203441
640.000000	14.158087
636.000000	14.123440
632.000000	14.103814
628.000000	14.062002
624.000000	14.038663
620.000000	13.998841
616.000000	13.962753
612.000000	13.926371
608.000000	13.892316
604.000000	13.841096
600.000000	13.802477
596.000000	13.767828
592.000000	13.722129
588.000000	13.684394
584.000000	13.625566
580.000000	13.584014
576.000000	13.525692
572.000000	13.472191
568.000000	13.423493
564.000000	13.368703
560.000000	13.303279
556.000000	13.232841
552.000000	13.179365
548.000000	13.117741
544.000000	13.043122
540.000000	12.969569
536.000000	12.901653
532.000000	12.834530
528.000000	12.760255
524.000000	12.688177
520.000000	12.618939
516.000000	12.548177
512.000000	12.484309
508.000000	12.414751
504.000000	12.362170
500.000000	12.310705
496.000000	12.259236
492.000000	12.207101
488.000000	12.152347
484.000000	12.095085
480.000000	12.012399
476.000000	11.948542
472.000000	11.887638
468.000000	11.829283
464.000000	11.775262
460.000000	11.729880
456.000000	11.681303
452.000000	11.631613
448.000000	11.581941
444.000000	11.525456
440.000000	11.463673
436.000000	11.393876
432.000000	11.331288
428.000000	11.264710
424.000000	11.209131
420.000000	11.150033
416.000000	11.083885
412.000000	11.009658
408.000000	10.941617
404.000000	10.871880
400.000000	10.786084
396.000000	10.704227
392.000000	10.606061
388.000000	10.491737
384.000000	10.385948
380.000000	10.246476
376.000000	10.078317
372.000000	9.867473
368.000000	9.596091
364.000000	9.202353
360.000000	8.684715
356.000000	7.959757
352.000000	6.996784
348.000000	5.815673
344.000000	4.647378
340.000000	3.778757
336.000000	3.377517
332.000000	3.273584
328.000000	3.252264
324.000000	3.231573
320.000000	3.222147
316.000000	3.218163
312.000000	3.201024
308.000000	3.193075
304.000000	3.185701
300.000000	3.175109
