PE UV       SUBTECH     SPECTRUM    ASCII       PEDS        4.00        
   -1
RW#1.asc
22/02/11
09:38:21.00
22/02/11
09:38:21.00
user
Ref SF4+spectralon
300.000000
1
Lambda 950
950L1311251
PerkinElmer UV WinLab 7.1.0.68 / 2.02.11 Lambda 900 UV/VIS/NIR, May 23 2018 11:23:04

0
0
3350/servo 860.8/2
0
0
UV/VIS
1
1
1
RBeamAtt,SBeamAtt,multi purpose optical bench
0
0
0
0
Program
Program
3350/servo 860.8/2
3350/1 860.8/1
3350/1 860.8/1
0
4
 
 
 
0
 
860.8
319.2
860.8
Front
100
 
S:100 R:100
 
0
0
0
 
0
 
 
 
0
 
 
0
0
0
0
0
 
 
 
 
0
0


0
0
#HDR
-1
-1
#GR
nm
%T
1.0
0.0
2500.000000
-4.000000
551
8
100.169553
4.204081
#DATA
2500.000000	92.699514
2496.000000	94.733958
2492.000000	93.185655
2488.000000	92.867220
2484.000000	93.165919
2480.000000	93.895208
2476.000000	93.630079
2472.000000	93.351802
2468.000000	93.502177
2464.000000	93.144343
2460.000000	94.630027
2456.000000	95.124595
2452.000000	94.297783
2448.000000	93.775511
2444.000000	95.364358
2440.000000	94.274736
2436.000000	94.864048
2432.000000	94.165352
2428.000000	95.200535
2424.000000	94.130102
2420.000000	94.886553
2416.000000	95.126690
2412.000000	95.175412
2408.000000	94.476205
2404.000000	93.771556
2400.000000	95.342532
2396.000000	95.682310
2392.000000	94.721836
2388.000000	95.001487
2384.000000	95.160568
2380.000000	95.089223
2376.000000	95.974215
2372.000000	94.733833
2368.000000	95.564961
2364.000000	95.950186
2360.000000	94.889897
2356.000000	95.199637
2352.000000	95.018301
2348.000000	95.620858
2344.000000	95.562903
2340.000000	95.340981
2336.000000	95.460579
2332.000000	95.380093
2328.000000	95.104213
2324.000000	95.096996
2320.000000	95.175681
2316.000000	95.444612
2312.000000	95.435478
2308.000000	94.914706
2304.000000	94.959144
2300.000000	95.653051
2296.000000	95.626897
2292.000000	95.312139
2288.000000	95.212883
2284.000000	95.075650
2280.000000	95.057771
2276.000000	95.328869
2272.000000	95.434413
2268.000000	95.263187
2264.000000	95.328942
2260.000000	95.620221
2256.000000	95.703193
2252.000000	95.673593
2248.000000	95.911349
2244.000000	95.991940
2240.000000	95.871536
2236.000000	95.760993
2232.000000	95.798894
2228.000000	95.899247
2224.000000	95.929335
2220.000000	95.919486
2216.000000	96.034195
2212.000000	96.213952
2208.000000	96.423226
2204.000000	96.495345
2200.000000	96.834693
2196.000000	96.895725
2192.000000	96.779281
2188.000000	96.963467
2184.000000	97.155796
2180.000000	97.280018
2176.000000	97.198267
2172.000000	96.973737
2168.000000	97.021520
2164.000000	97.242853
2160.000000	97.268919
2156.000000	97.139791
2152.000000	97.111043
2148.000000	97.171537
2144.000000	97.302559
2140.000000	97.230357
2136.000000	97.216591
2132.000000	97.473450
2128.000000	97.521960
2124.000000	97.516081
2120.000000	97.507301
2116.000000	97.593126
2112.000000	97.589098
2108.000000	97.512273
2104.000000	97.650569
2100.000000	97.787751
2096.000000	97.908658
2092.000000	97.769512
2088.000000	97.744290
2084.000000	97.688034
2080.000000	97.694638
2076.000000	97.834453
2072.000000	97.878218
2068.000000	97.838590
2064.000000	97.898796
2060.000000	97.783429
2056.000000	97.778562
2052.000000	97.801420
2048.000000	97.834194
2044.000000	97.966449
2040.000000	97.906466
2036.000000	97.896325
2032.000000	98.000194
2028.000000	98.015781
2024.000000	97.986330
2020.000000	98.017853
2016.000000	98.081191
2012.000000	98.147057
2008.000000	98.269326
2004.000000	98.364313
2000.000000	98.386146
1996.000000	98.327203
1992.000000	98.150936
1988.000000	98.270909
1984.000000	98.301340
1980.000000	98.380119
1976.000000	98.338665
1972.000000	98.523472
1968.000000	98.622477
1964.000000	98.423086
1960.000000	98.509284
1956.000000	98.632011
1952.000000	98.475230
1948.000000	98.538847
1944.000000	98.542982
1940.000000	98.738325
1936.000000	98.715250
1932.000000	98.633646
1928.000000	98.562043
1924.000000	98.530880
1920.000000	98.608346
1916.000000	98.592464
1912.000000	98.660526
1908.000000	98.528233
1904.000000	98.526227
1900.000000	98.606969
1896.000000	98.701102
1892.000000	98.752064
1888.000000	98.670208
1884.000000	98.745725
1880.000000	98.634329
1876.000000	98.619981
1872.000000	98.657094
1868.000000	98.569366
1864.000000	98.675470
1860.000000	98.698655
1856.000000	98.745604
1852.000000	98.691499
1848.000000	98.630574
1844.000000	98.745818
1840.000000	98.649941
1836.000000	98.621901
1832.000000	98.736648
1828.000000	98.849064
1824.000000	98.808474
1820.000000	98.402022
1816.000000	98.838427
1812.000000	98.971568
1808.000000	98.965350
1804.000000	98.775377
1800.000000	98.738693
1796.000000	99.007953
1792.000000	98.746637
1788.000000	99.125244
1784.000000	98.934028
1780.000000	98.903869
1776.000000	98.751457
1772.000000	98.901861
1768.000000	98.984574
1764.000000	99.121881
1760.000000	99.246687
1756.000000	99.009764
1752.000000	99.050547
1748.000000	99.151441
1744.000000	99.177387
1740.000000	99.203526
1736.000000	99.099515
1732.000000	98.979359
1728.000000	99.278650
1724.000000	99.187298
1720.000000	99.327655
1716.000000	99.173328
1712.000000	99.363767
1708.000000	99.112787
1704.000000	99.213286
1700.000000	99.343124
1696.000000	99.307413
1692.000000	99.591736
1688.000000	99.336190
1684.000000	99.444983
1680.000000	99.354360
1676.000000	99.451694
1672.000000	99.308116
1668.000000	99.346012
1664.000000	99.213142
1660.000000	99.590599
1656.000000	99.537468
1652.000000	99.393367
1648.000000	99.473050
1644.000000	99.461578
1640.000000	99.331688
1636.000000	99.337188
1632.000000	99.476208
1628.000000	99.612894
1624.000000	99.409815
1620.000000	99.554928
1616.000000	99.456741
1612.000000	99.613468
1608.000000	99.694830
1604.000000	99.582500
1600.000000	99.555781
1596.000000	99.452168
1592.000000	99.556895
1588.000000	99.547265
1584.000000	99.596601
1580.000000	99.621209
1576.000000	99.595889
1572.000000	99.563224
1568.000000	99.466468
1564.000000	99.642335
1560.000000	99.606422
1556.000000	99.461848
1552.000000	99.712249
1548.000000	99.690355
1544.000000	99.710445
1540.000000	99.591383
1536.000000	99.574337
1532.000000	99.468358
1528.000000	99.602394
1524.000000	99.739567
1520.000000	99.727319
1516.000000	99.686054
1512.000000	99.684268
1508.000000	99.725544
1504.000000	99.810886
1500.000000	99.576961
1496.000000	99.546938
1492.000000	99.541947
1488.000000	99.599777
1484.000000	99.514309
1480.000000	99.533063
1476.000000	99.527553
1472.000000	99.571130
1468.000000	99.546237
1464.000000	99.496612
1460.000000	99.520216
1456.000000	99.538688
1452.000000	99.398094
1448.000000	99.284626
1444.000000	99.346278
1440.000000	99.357603
1436.000000	99.322390
1432.000000	99.461678
1428.000000	99.483099
1424.000000	99.367623
1420.000000	99.515304
1416.000000	99.524361
1412.000000	99.482589
1408.000000	99.552148
1404.000000	99.486641
1400.000000	99.626753
1396.000000	99.637789
1392.000000	99.540111
1388.000000	99.583502
1384.000000	99.665638
1380.000000	99.719711
1376.000000	99.738022
1372.000000	99.734135
1368.000000	99.733441
1364.000000	99.710270
1360.000000	99.726184
1356.000000	99.780318
1352.000000	99.649287
1348.000000	99.615934
1344.000000	99.784170
1340.000000	99.795857
1336.000000	99.656639
1332.000000	99.778204
1328.000000	99.816100
1324.000000	99.738966
1320.000000	99.820113
1316.000000	99.893506
1312.000000	99.835256
1308.000000	99.793807
1304.000000	99.837536
1300.000000	99.915394
1296.000000	99.814886
1292.000000	99.753437
1288.000000	99.768540
1284.000000	99.759620
1280.000000	99.730542
1276.000000	99.717377
1272.000000	99.632357
1268.000000	99.656447
1264.000000	99.869009
1260.000000	99.846669
1256.000000	99.752807
1252.000000	99.807047
1248.000000	99.770081
1244.000000	99.781064
1240.000000	99.759390
1236.000000	99.685546
1232.000000	99.696807
1228.000000	99.862971
1224.000000	99.761991
1220.000000	99.736951
1216.000000	99.756624
1212.000000	99.711230
1208.000000	99.684267
1204.000000	99.776678
1200.000000	99.665277
1196.000000	99.684955
1192.000000	99.732434
1188.000000	99.806079
1184.000000	99.719999
1180.000000	99.784157
1176.000000	99.888281
1172.000000	99.887087
1168.000000	99.870931
1164.000000	99.776871
1160.000000	99.719312
1156.000000	99.769311
1152.000000	99.819707
1148.000000	99.658892
1144.000000	99.683854
1140.000000	99.669785
1136.000000	99.645585
1132.000000	99.723991
1128.000000	99.713084
1124.000000	99.782024
1120.000000	99.778845
1116.000000	99.812580
1112.000000	99.858419
1108.000000	99.817080
1104.000000	99.783904
1100.000000	99.677469
1096.000000	99.674294
1092.000000	99.581431
1088.000000	99.657324
1084.000000	99.678371
1080.000000	99.756659
1076.000000	99.788939
1072.000000	99.918785
1068.000000	99.816739
1064.000000	99.719475
1060.000000	99.664644
1056.000000	99.823720
1052.000000	99.627058
1048.000000	99.722232
1044.000000	99.821348
1040.000000	99.934431
1036.000000	99.778115
1032.000000	99.608299
1028.000000	99.675968
1024.000000	99.455300
1020.000000	99.732094
1016.000000	99.777787
1012.000000	99.782726
1008.000000	99.809913
1004.000000	99.782485
1000.000000	99.971142
996.000000	99.850121
992.000000	99.769815
988.000000	99.793084
984.000000	99.639630
980.000000	99.832140
976.000000	99.701255
972.000000	99.819220
968.000000	99.724007
964.000000	99.781771
960.000000	99.855381
956.000000	99.793430
952.000000	99.773446
948.000000	99.805745
944.000000	99.822954
940.000000	99.786494
936.000000	99.733006
932.000000	100.041332
928.000000	99.747532
924.000000	99.848989
920.000000	99.790741
916.000000	99.715827
912.000000	99.529384
908.000000	99.498784
904.000000	99.880815
900.000000	100.169553
896.000000	99.833688
892.000000	99.983463
888.000000	100.079088
884.000000	99.834687
880.000000	99.897851
876.000000	99.871794
872.000000	99.805736
868.000000	99.918943
864.000000	99.919858
860.000000	99.872380
856.000000	99.552281
852.000000	99.684152
848.000000	99.959945
844.000000	99.653657
840.000000	99.875855
836.000000	99.833066
832.000000	99.791249
828.000000	99.689876
824.000000	99.733645
820.000000	99.699119
816.000000	99.835120
812.000000	99.846944
808.000000	99.782524
804.000000	99.722216
800.000000	99.864852
796.000000	99.711692
792.000000	99.735462
788.000000	99.767771
784.000000	99.883645
780.000000	99.719328
776.000000	99.722480
772.000000	99.690172
768.000000	99.822736
764.000000	99.782358
760.000000	99.873922
756.000000	99.892299
752.000000	99.876614
748.000000	99.760192
744.000000	99.760308
740.000000	99.784378
736.000000	99.872102
732.000000	99.744230
728.000000	99.749075
724.000000	99.774253
720.000000	99.758178
716.000000	99.739766
712.000000	99.771093
708.000000	99.775302
704.000000	99.768337
700.000000	99.790344
696.000000	99.794544
692.000000	99.743568
688.000000	99.771090
684.000000	99.765962
680.000000	99.783904
676.000000	99.741358
672.000000	99.724012
668.000000	99.754319
664.000000	99.729179
660.000000	99.757348
656.000000	99.742594
652.000000	99.747607
648.000000	99.745608
644.000000	99.759511
640.000000	99.744005
636.000000	99.712270
632.000000	99.761767
628.000000	99.741858
624.000000	99.775966
620.000000	99.762421
616.000000	99.813345
612.000000	99.756131
608.000000	99.784450
604.000000	99.762085
600.000000	99.762376
596.000000	99.773836
592.000000	99.753858
588.000000	99.804509
584.000000	99.800816
580.000000	99.780210
576.000000	99.803899
572.000000	99.796453
568.000000	99.768630
564.000000	99.773456
560.000000	99.780108
556.000000	99.743121
552.000000	99.760812
548.000000	99.762710
544.000000	99.784960
540.000000	99.776924
536.000000	99.773527
532.000000	99.758853
528.000000	99.771338
524.000000	99.754731
520.000000	99.732793
516.000000	99.732884
512.000000	99.742530
508.000000	99.733835
504.000000	99.726081
500.000000	99.720130
496.000000	99.718466
492.000000	99.677228
488.000000	99.665616
484.000000	99.638850
480.000000	99.610461
476.000000	99.570080
472.000000	99.591551
468.000000	99.532168
464.000000	99.489888
460.000000	99.468927
456.000000	99.396347
452.000000	99.354003
448.000000	99.289037
444.000000	99.244413
440.000000	99.198889
436.000000	99.126690
432.000000	99.066674
428.000000	98.970195
424.000000	98.860322
420.000000	98.718878
416.000000	98.531208
412.000000	98.256745
408.000000	98.004151
404.000000	97.694003
400.000000	97.245975
396.000000	96.681703
392.000000	96.042126
388.000000	95.186748
384.000000	94.117204
380.000000	92.808870
376.000000	91.038806
372.000000	88.472121
368.000000	85.120554
364.000000	80.162635
360.000000	73.320342
356.000000	63.606455
352.000000	50.765163
348.000000	35.578268
344.000000	20.748621
340.000000	10.155746
336.000000	5.493996
332.000000	4.532399
328.000000	4.420287
324.000000	4.373723
320.000000	4.359844
316.000000	4.356464
312.000000	4.311251
308.000000	4.275235
304.000000	4.245014
300.000000	4.204081
