PE UV       SUBTECH     SPECTRUM    ASCII       PEDS        4.00        
   -1
SF4tn.asc
22/02/11
08:53:42.00
22/02/11
08:53:42.00
user
Tram SF4
300.000000
1
Lambda 950
950L1311251
PerkinElmer UV WinLab 7.1.0.68 / 2.02.11 Lambda 900 UV/VIS/NIR, May 23 2018 11:23:04

0
0
3350/servo 860.8/2
0
0
UV/VIS
1
1
1
RBeamAtt,SBeamAtt,multi purpose optical bench
0
0
0
0
Program
Program
3350/servo 860.8/2
3350/1 860.8/1
3350/1 860.8/1
0
4
 
 
 
0
 
860.8
319.2
860.8
Front
100
 
S:100 R:100
 
0
0
0
 
0
 
 
 
0
 
 
0
0
0
0
0
 
 
 
 
0
0


0
0
#HDR
-1
-1
#GR
nm
%T
1.0
0.0
2500.000000
-4.000000
551
8
90.633118
-0.000461
#DATA
2500.000000	83.752808
2496.000000	86.240798
2492.000000	84.163532
2488.000000	85.234666
2484.000000	85.620599
2480.000000	84.763337
2476.000000	85.510155
2472.000000	85.930656
2468.000000	85.196413
2464.000000	84.252845
2460.000000	85.692235
2456.000000	85.742530
2452.000000	85.714068
2448.000000	85.687194
2444.000000	86.682622
2440.000000	85.150552
2436.000000	85.379953
2432.000000	85.174700
2428.000000	85.496294
2424.000000	85.441827
2420.000000	85.469975
2416.000000	85.746966
2412.000000	85.379881
2408.000000	85.694741
2404.000000	85.015718
2400.000000	85.487400
2396.000000	86.047232
2392.000000	85.669719
2388.000000	85.269220
2384.000000	85.635578
2380.000000	85.728702
2376.000000	86.328811
2372.000000	85.516239
2368.000000	86.329055
2364.000000	85.854312
2360.000000	85.797888
2356.000000	85.571613
2352.000000	85.344879
2348.000000	85.997301
2344.000000	86.180969
2340.000000	85.754992
2336.000000	85.788097
2332.000000	85.787852
2328.000000	85.756290
2324.000000	85.576268
2320.000000	85.794445
2316.000000	85.515971
2312.000000	85.597340
2308.000000	85.371375
2304.000000	85.131286
2300.000000	85.848400
2296.000000	85.885312
2292.000000	85.699044
2288.000000	85.795894
2284.000000	85.859100
2280.000000	85.359564
2276.000000	85.721227
2272.000000	85.674450
2268.000000	85.646120
2264.000000	85.686391
2260.000000	85.846415
2256.000000	85.972056
2252.000000	85.791778
2248.000000	85.693624
2244.000000	85.626341
2240.000000	85.812435
2236.000000	85.605807
2232.000000	85.681467
2228.000000	85.800094
2224.000000	85.940020
2220.000000	85.720003
2216.000000	85.703647
2212.000000	85.862400
2208.000000	86.164315
2204.000000	86.267692
2200.000000	86.306908
2196.000000	86.165395
2192.000000	86.264878
2188.000000	86.350572
2184.000000	86.508463
2180.000000	86.625288
2176.000000	86.492693
2172.000000	86.451098
2168.000000	86.339486
2164.000000	86.440265
2160.000000	86.427089
2156.000000	86.307890
2152.000000	86.407921
2148.000000	86.467269
2144.000000	86.518883
2140.000000	86.711716
2136.000000	86.678567
2132.000000	86.698919
2128.000000	86.734438
2124.000000	86.737150
2120.000000	86.799208
2116.000000	86.861823
2112.000000	86.735529
2108.000000	86.568892
2104.000000	86.606187
2100.000000	86.760601
2096.000000	86.754361
2092.000000	86.746975
2088.000000	86.764375
2084.000000	86.679945
2080.000000	86.775757
2076.000000	86.805045
2072.000000	86.805692
2068.000000	86.692809
2064.000000	86.724081
2060.000000	86.716516
2056.000000	86.659891
2052.000000	86.730934
2048.000000	86.727736
2044.000000	86.864087
2040.000000	86.839163
2036.000000	86.789890
2032.000000	86.758186
2028.000000	86.758638
2024.000000	86.881812
2020.000000	86.920607
2016.000000	86.867753
2012.000000	86.877083
2008.000000	86.940897
2004.000000	86.955192
2000.000000	86.923523
1996.000000	86.919631
1992.000000	86.880515
1988.000000	86.907063
1984.000000	86.858445
1980.000000	86.833140
1976.000000	86.843730
1972.000000	86.966156
1968.000000	87.001704
1964.000000	86.769567
1960.000000	86.797059
1956.000000	86.747492
1952.000000	86.847377
1948.000000	86.977539
1944.000000	86.769553
1940.000000	86.989962
1936.000000	87.017278
1932.000000	87.041729
1928.000000	86.980404
1924.000000	86.864787
1920.000000	86.770840
1916.000000	86.873383
1912.000000	86.973546
1908.000000	86.893907
1904.000000	86.850258
1900.000000	86.865344
1896.000000	87.017683
1892.000000	86.988919
1888.000000	86.988282
1884.000000	87.052431
1880.000000	87.085353
1876.000000	86.968672
1872.000000	86.947755
1868.000000	86.962424
1864.000000	87.116967
1860.000000	86.984465
1856.000000	87.184856
1852.000000	87.140419
1848.000000	87.039691
1844.000000	87.006782
1840.000000	86.973333
1836.000000	86.940983
1832.000000	87.087360
1828.000000	86.956307
1824.000000	87.134335
1820.000000	86.987775
1816.000000	87.098853
1812.000000	87.085651
1808.000000	87.132047
1804.000000	86.892555
1800.000000	86.896697
1796.000000	87.062241
1792.000000	86.829546
1788.000000	87.176263
1784.000000	87.130957
1780.000000	86.861107
1776.000000	86.886781
1772.000000	86.948457
1768.000000	87.085590
1764.000000	87.181145
1760.000000	87.098770
1756.000000	87.105247
1752.000000	87.141596
1748.000000	87.082663
1744.000000	87.222624
1740.000000	87.214995
1736.000000	87.206449
1732.000000	87.042253
1728.000000	87.359205
1724.000000	87.281940
1720.000000	87.053077
1716.000000	87.090058
1712.000000	87.296306
1708.000000	87.077153
1704.000000	87.195753
1700.000000	87.249509
1696.000000	87.201667
1692.000000	87.336199
1688.000000	87.241333
1684.000000	87.433927
1680.000000	87.283877
1676.000000	87.324977
1672.000000	87.033280
1668.000000	87.206167
1664.000000	87.319197
1660.000000	87.307320
1656.000000	87.275081
1652.000000	87.223262
1648.000000	87.390203
1644.000000	87.345214
1640.000000	87.217463
1636.000000	87.291675
1632.000000	87.294099
1628.000000	87.391961
1624.000000	87.221009
1620.000000	87.468539
1616.000000	87.279711
1612.000000	87.463038
1608.000000	87.562043
1604.000000	87.441480
1600.000000	87.240860
1596.000000	87.312221
1592.000000	87.434075
1588.000000	87.478592
1584.000000	87.436457
1580.000000	87.564660
1576.000000	87.406938
1572.000000	87.447908
1568.000000	87.273109
1564.000000	87.370007
1560.000000	87.360586
1556.000000	87.337639
1552.000000	87.443223
1548.000000	87.564525
1544.000000	87.555512
1540.000000	87.359321
1536.000000	87.507179
1532.000000	87.246690
1528.000000	87.445582
1524.000000	87.561198
1520.000000	87.459053
1516.000000	87.576973
1512.000000	87.482334
1508.000000	87.441880
1504.000000	87.613583
1500.000000	87.430315
1496.000000	87.437441
1492.000000	87.392354
1488.000000	87.409602
1484.000000	87.346234
1480.000000	87.364250
1476.000000	87.451086
1472.000000	87.579335
1468.000000	87.460858
1464.000000	87.364782
1460.000000	87.450765
1456.000000	87.411606
1452.000000	87.323251
1448.000000	87.293551
1444.000000	87.270011
1440.000000	87.323474
1436.000000	87.265241
1432.000000	87.304453
1428.000000	87.373498
1424.000000	87.301224
1420.000000	87.406276
1416.000000	87.596263
1412.000000	87.539051
1408.000000	87.465559
1404.000000	87.449805
1400.000000	87.503299
1396.000000	87.542561
1392.000000	87.541739
1388.000000	87.438083
1384.000000	87.464409
1380.000000	87.513559
1376.000000	87.577501
1372.000000	87.648006
1368.000000	87.626632
1364.000000	87.588455
1360.000000	87.609342
1356.000000	87.640241
1352.000000	87.516775
1348.000000	87.451932
1344.000000	87.646786
1340.000000	87.651309
1336.000000	87.491663
1332.000000	87.679865
1328.000000	87.797745
1324.000000	87.757742
1320.000000	87.796655
1316.000000	87.795791
1312.000000	87.743289
1308.000000	87.653825
1304.000000	87.607692
1300.000000	87.575539
1296.000000	87.650453
1292.000000	87.694938
1288.000000	87.615433
1284.000000	87.659363
1280.000000	87.686403
1276.000000	87.686706
1272.000000	87.620100
1268.000000	87.521768
1264.000000	87.675086
1260.000000	87.695989
1256.000000	87.682154
1252.000000	87.809607
1248.000000	87.809832
1244.000000	87.717167
1240.000000	87.638721
1236.000000	87.600714
1232.000000	87.699801
1228.000000	87.747297
1224.000000	87.673052
1220.000000	87.652062
1216.000000	87.695970
1212.000000	87.704411
1208.000000	87.721984
1204.000000	87.668831
1200.000000	87.655149
1196.000000	87.664858
1192.000000	87.591902
1188.000000	87.693767
1184.000000	87.693969
1180.000000	87.601641
1176.000000	87.779853
1172.000000	87.896913
1168.000000	87.840038
1164.000000	87.780591
1160.000000	87.750569
1156.000000	87.781515
1152.000000	87.835671
1148.000000	87.841345
1144.000000	87.857152
1140.000000	87.770136
1136.000000	87.786799
1132.000000	87.859459
1128.000000	87.905057
1124.000000	87.886770
1120.000000	87.732760
1116.000000	87.844786
1112.000000	87.784612
1108.000000	87.800753
1104.000000	87.936524
1100.000000	87.859266
1096.000000	87.780092
1092.000000	87.566751
1088.000000	87.769427
1084.000000	87.892065
1080.000000	87.831742
1076.000000	87.890147
1072.000000	88.088537
1068.000000	87.891591
1064.000000	87.873986
1060.000000	87.778238
1056.000000	87.949908
1052.000000	87.898097
1048.000000	87.905551
1044.000000	87.985005
1040.000000	88.240658
1036.000000	87.954589
1032.000000	87.949515
1028.000000	88.011176
1024.000000	87.942831
1020.000000	88.102999
1016.000000	88.199121
1012.000000	88.180009
1008.000000	88.049137
1004.000000	88.036678
1000.000000	88.130251
996.000000	88.055717
992.000000	87.998240
988.000000	88.019788
984.000000	88.024011
980.000000	87.963821
976.000000	88.078280
972.000000	88.020667
968.000000	88.049431
964.000000	88.104189
960.000000	88.040338
956.000000	88.140744
952.000000	88.092462
948.000000	88.166717
944.000000	88.131753
940.000000	88.241765
936.000000	88.132167
932.000000	88.404768
928.000000	88.230898
924.000000	88.334078
920.000000	88.241224
916.000000	88.165036
912.000000	88.238319
908.000000	88.124916
904.000000	88.357190
900.000000	88.541232
896.000000	88.396111
892.000000	88.428368
888.000000	88.405984
884.000000	88.445836
880.000000	88.259513
876.000000	88.357662
872.000000	88.382740
868.000000	88.449779
864.000000	88.538259
860.000000	88.652410
856.000000	88.606255
852.000000	88.169345
848.000000	88.312724
844.000000	88.338536
840.000000	88.380483
836.000000	88.357497
832.000000	88.420902
828.000000	88.390408
824.000000	88.305901
820.000000	88.388719
816.000000	88.470203
812.000000	88.510375
808.000000	88.448678
804.000000	88.511012
800.000000	88.604365
796.000000	88.594695
792.000000	88.534819
788.000000	88.525302
784.000000	88.562345
780.000000	88.567883
776.000000	88.598207
772.000000	88.586823
768.000000	88.561764
764.000000	88.672708
760.000000	88.708050
756.000000	88.652132
752.000000	88.765627
748.000000	88.700036
744.000000	88.762540
740.000000	88.779674
736.000000	88.755043
732.000000	88.785149
728.000000	88.742841
724.000000	88.833662
720.000000	88.861953
716.000000	88.835080
712.000000	88.844482
708.000000	88.958493
704.000000	88.945495
700.000000	88.972566
696.000000	88.948306
692.000000	88.929555
688.000000	88.991175
684.000000	89.032961
680.000000	89.014456
676.000000	89.058825
672.000000	89.061694
668.000000	89.081051
664.000000	89.047411
660.000000	89.124454
656.000000	89.139308
652.000000	89.154098
648.000000	89.158873
644.000000	89.229140
640.000000	89.241570
636.000000	89.211109
632.000000	89.264970
628.000000	89.291342
624.000000	89.351196
620.000000	89.374126
616.000000	89.398832
612.000000	89.421210
608.000000	89.461392
604.000000	89.455381
600.000000	89.498270
596.000000	89.524876
592.000000	89.512091
588.000000	89.564425
584.000000	89.589870
580.000000	89.670035
576.000000	89.674912
572.000000	89.675721
568.000000	89.705490
564.000000	89.759037
560.000000	89.772762
556.000000	89.758139
552.000000	89.810782
548.000000	89.869294
544.000000	89.894555
540.000000	89.907036
536.000000	89.945728
532.000000	89.963408
528.000000	90.009100
524.000000	90.050214
520.000000	90.064710
516.000000	90.105741
512.000000	90.147510
508.000000	90.170872
504.000000	90.223846
500.000000	90.249979
496.000000	90.266164
492.000000	90.269381
488.000000	90.337245
484.000000	90.382904
480.000000	90.384900
476.000000	90.416300
472.000000	90.466161
468.000000	90.460805
464.000000	90.475718
460.000000	90.529379
456.000000	90.547403
452.000000	90.540903
448.000000	90.572580
444.000000	90.595379
440.000000	90.586509
436.000000	90.618014
432.000000	90.621448
428.000000	90.619675
424.000000	90.633118
420.000000	90.614845
416.000000	90.590544
412.000000	90.492098
408.000000	90.416128
404.000000	90.376416
400.000000	90.183396
396.000000	89.899610
392.000000	89.720763
388.000000	89.380659
384.000000	88.980237
380.000000	88.478293
376.000000	87.678155
372.000000	86.507613
368.000000	85.051042
364.000000	82.653597
360.000000	79.161842
356.000000	73.809786
352.000000	65.753192
348.000000	54.189408
344.000000	39.257942
340.000000	22.858233
336.000000	9.280045
332.000000	2.069278
328.000000	0.172173
324.000000	0.004258
320.000000	0.000464
316.000000	0.000461
312.000000	0.001230
308.000000	0.000077
304.000000	-0.000461
300.000000	0.000461
