PE IR                   SPECTRUM    ASCII       PEDS        1.60        
  -1
~SP.SP
22/02/22
09:06:52.00
22/02/22
09:06:52.00
Administrator

450.000000
4









SPECTRUM 100,CPU32 MAIN 00.02.7000 27-JANUARY-2006 11:32:41
MIR TGS
MIR
OPTKBR
76073
0.200000

4.000000
STRONG
RATIO
SPECTRUM
MAGNITUDE
SLIDE HOLDER
DOUBLE

COMBINED


0


#HDR
-1
-1
#GR
CM-1
%T
0.00002384185791015625
0.0
4000.000000
-1.000000
3551
8
96.572437
0.441201
#DATA
4000.000000	91.465774 
3999.000000	91.473138 
3998.000000	91.480503 
3997.000000	91.487865 
3996.000000	91.495792 
3995.000000	91.504238 
3994.000000	91.512710 
3993.000000	91.520596 
3992.000000	91.527644 
3991.000000	91.534071 
3990.000000	91.540323 
3989.000000	91.546833 
3988.000000	91.553947 
3987.000000	91.561933 
3986.000000	91.570911 
3985.000000	91.580711 
3984.000000	91.590779 
3983.000000	91.600340 
3982.000000	91.608889 
3981.000000	91.616664 
3980.000000	91.624551 
3979.000000	91.633363 
3978.000000	91.643129 
3977.000000	91.653085 
3976.000000	91.662363 
3975.000000	91.670656 
3974.000000	91.678343 
3973.000000	91.686057 
3972.000000	91.694140 
3971.000000	91.702465 
3970.000000	91.710787 
3969.000000	91.719258 
3968.000000	91.728402 
3967.000000	91.738467 
3966.000000	91.748941 
3965.000000	91.758919 
3964.000000	91.767911 
3963.000000	91.776231 
3962.000000	91.784573 
3961.000000	91.793332 
3960.000000	91.802403 
3959.000000	91.811532 
3958.000000	91.820696 
3957.000000	91.830108 
3956.000000	91.839860 
3955.000000	91.849645 
3954.000000	91.859019 
3953.000000	91.867911 
3952.000000	91.876745 
3951.000000	91.886064 
3950.000000	91.896075 
3949.000000	91.906586 
3948.000000	91.917156 
3947.000000	91.927307 
3946.000000	91.936826 
3945.000000	91.945941 
3944.000000	91.955157 
3943.000000	91.964856 
3942.000000	91.975058 
3941.000000	91.985457 
3940.000000	91.995723 
3939.000000	92.005762 
3938.000000	92.015612 
3937.000000	92.025129 
3936.000000	92.033936 
3935.000000	92.041787 
3934.000000	92.049076 
3933.000000	92.056960 
3932.000000	92.066678 
3931.000000	92.078448 
3930.000000	92.091075 
3929.000000	92.102932 
3928.000000	92.113310 
3927.000000	92.122821 
3926.000000	92.132718 
3925.000000	92.143809 
3924.000000	92.155832 
3923.000000	92.167532 
3922.000000	92.177428 
3921.000000	92.185089 
3920.000000	92.191796 
3919.000000	92.199776 
3918.000000	92.210531 
3917.000000	92.223684 
3916.000000	92.237371 
3915.000000	92.249669 
3914.000000	92.259789 
3913.000000	92.268314 
3912.000000	92.276548 
3911.000000	92.285441 
3910.000000	92.294798 
3909.000000	92.303571 
3908.000000	92.311011 
3907.000000	92.317421 
3906.000000	92.323936 
3905.000000	92.331793 
3904.000000	92.341766 
3903.000000	92.354160 
3902.000000	92.368771 
3901.000000	92.384894 
3900.000000	92.401354 
3899.000000	92.416550 
3898.000000	92.428986 
3897.000000	92.437992 
3896.000000	92.444123 
3895.000000	92.449102 
3894.000000	92.454998 
3893.000000	92.463162 
3892.000000	92.473689 
3891.000000	92.485493 
3890.000000	92.497037 
3889.000000	92.507324 
3888.000000	92.516521 
3887.000000	92.525774 
3886.000000	92.536128 
3885.000000	92.547881 
3884.000000	92.560526 
3883.000000	92.573054 
3882.000000	92.584862 
3881.000000	92.596326 
3880.000000	92.607961 
3879.000000	92.619607 
3878.000000	92.630475 
3877.000000	92.639803 
3876.000000	92.647584 
3875.000000	92.654466 
3874.000000	92.661539 
3873.000000	92.670147 
3872.000000	92.680880 
3871.000000	92.692866 
3870.000000	92.704670 
3869.000000	92.715832 
3868.000000	92.726755 
3867.000000	92.737333 
3866.000000	92.747287 
3865.000000	92.757287 
3864.000000	92.768549 
3863.000000	92.781448 
3862.000000	92.794585 
3861.000000	92.805906 
3860.000000	92.814544 
3859.000000	92.821106 
3858.000000	92.827215 
3857.000000	92.834834 
3856.000000	92.845215 
3855.000000	92.857976 
3854.000000	92.871310 
3853.000000	92.884436 
3852.000000	92.898109 
3851.000000	92.911030 
3850.000000	92.920857 
3849.000000	92.928436 
3848.000000	92.936282 
3847.000000	92.945574 
3846.000000	92.955843 
3845.000000	92.965851 
3844.000000	92.974826 
3843.000000	92.983091 
3842.000000	92.991985 
3841.000000	93.002941 
3840.000000	93.015946 
3839.000000	93.029147 
3838.000000	93.040703 
3837.000000	93.050663 
3836.000000	93.060577 
3835.000000	93.071569 
3834.000000	93.083356 
3833.000000	93.094997 
3832.000000	93.105642 
3831.000000	93.115126 
3830.000000	93.124014 
3829.000000	93.132898 
3828.000000	93.141977 
3827.000000	93.151190 
3826.000000	93.160462 
3825.000000	93.170070 
3824.000000	93.180463 
3823.000000	93.191542 
3822.000000	93.202563 
3821.000000	93.213018 
3820.000000	93.223581 
3819.000000	93.235066 
3818.000000	93.246795 
3817.000000	93.257708 
3816.000000	93.267468 
3815.000000	93.276709 
3814.000000	93.286585 
3813.000000	93.296836 
3812.000000	93.306260 
3811.000000	93.314921 
3810.000000	93.324047 
3809.000000	93.334281 
3808.000000	93.344640 
3807.000000	93.353362 
3806.000000	93.360334 
3805.000000	93.367687 
3804.000000	93.377130 
3803.000000	93.388077 
3802.000000	93.398136 
3801.000000	93.405722 
3800.000000	93.412927 
3799.000000	93.422767 
3798.000000	93.435194 
3797.000000	93.448335 
3796.000000	93.460503 
3795.000000	93.471105 
3794.000000	93.480708 
3793.000000	93.489939 
3792.000000	93.498886 
3791.000000	93.507486 
3790.000000	93.515992 
3789.000000	93.524925 
3788.000000	93.534663 
3787.000000	93.544925 
3786.000000	93.554793 
3785.000000	93.563475 
3784.000000	93.571143 
3783.000000	93.578920 
3782.000000	93.587943 
3781.000000	93.598379 
3780.000000	93.609369 
3779.000000	93.619856 
3778.000000	93.629444 
3777.000000	93.638249 
3776.000000	93.646198 
3775.000000	93.653066 
3774.000000	93.659087 
3773.000000	93.665187 
3772.000000	93.672343 
3771.000000	93.680728 
3770.000000	93.689739 
3769.000000	93.698937 
3768.000000	93.708393 
3767.000000	93.718135 
3766.000000	93.728037 
3765.000000	93.737959 
3764.000000	93.747731 
3763.000000	93.757096 
3762.000000	93.765586 
3761.000000	93.772832 
3760.000000	93.779054 
3759.000000	93.785156 
3758.000000	93.792052 
3757.000000	93.799770 
3756.000000	93.807787 
3755.000000	93.815733 
3754.000000	93.823408 
3753.000000	93.830881 
3752.000000	93.838478 
3751.000000	93.846355 
3750.000000	93.854006 
3749.000000	93.860688 
3748.000000	93.866742 
3747.000000	93.873851 
3746.000000	93.883355 
3745.000000	93.894467 
3744.000000	93.905469 
3743.000000	93.915924 
3742.000000	93.924906 
3741.000000	93.930841 
3740.000000	93.934498 
3739.000000	93.937803 
3738.000000	93.941796 
3737.000000	93.947018 
3736.000000	93.954679 
3735.000000	93.966031 
3734.000000	93.980159 
3733.000000	93.993738 
3732.000000	94.003632 
3731.000000	94.009118 
3730.000000	94.011486 
3729.000000	94.012551 
3728.000000	94.014006 
3727.000000	94.016992 
3726.000000	94.021889 
3725.000000	94.028290 
3724.000000	94.035145 
3723.000000	94.041542 
3722.000000	94.047549 
3721.000000	94.053730 
3720.000000	94.060020 
3719.000000	94.065867 
3718.000000	94.070979 
3717.000000	94.075439 
3716.000000	94.079443 
3715.000000	94.082780 
3714.000000	94.084986 
3713.000000	94.085927 
3712.000000	94.086482 
3711.000000	94.087838 
3710.000000	94.090394 
3709.000000	94.093046 
3708.000000	94.094155 
3707.000000	94.093081 
3706.000000	94.090328 
3705.000000	94.087232 
3704.000000	94.084714 
3703.000000	94.083262 
3702.000000	94.082738 
3701.000000	94.082674 
3700.000000	94.081967 
3699.000000	94.079343 
3698.000000	94.074166 
3697.000000	94.066973 
3696.000000	94.059181 
3695.000000	94.052185 
3694.000000	94.046718 
3693.000000	94.042654 
3692.000000	94.039967 
3691.000000	94.038356 
3690.000000	94.037014 
3689.000000	94.034723 
3688.000000	94.031304 
3687.000000	94.027823 
3686.000000	94.025172 
3685.000000	94.023556 
3684.000000	94.022335 
3683.000000	94.020704 
3682.000000	94.018065 
3681.000000	94.014719 
3680.000000	94.011491 
3679.000000	94.009342 
3678.000000	94.008408 
3677.000000	94.007443 
3676.000000	94.004719 
3675.000000	94.000722 
3674.000000	93.998089 
3673.000000	93.997246 
3672.000000	93.996221 
3671.000000	93.993681 
3670.000000	93.989502 
3669.000000	93.984650 
3668.000000	93.980035 
3667.000000	93.974483 
3666.000000	93.966647 
3665.000000	93.957004 
3664.000000	93.946877 
3663.000000	93.937117 
3662.000000	93.927591 
3661.000000	93.917385 
3660.000000	93.905683 
3659.000000	93.892278 
3658.000000	93.877234 
3657.000000	93.860579 
3656.000000	93.842467 
3655.000000	93.823446 
3654.000000	93.803841 
3653.000000	93.783390 
3652.000000	93.761472 
3651.000000	93.737069 
3650.000000	93.709531 
3649.000000	93.680015 
3648.000000	93.650578 
3647.000000	93.621327 
3646.000000	93.590391 
3645.000000	93.556260 
3644.000000	93.518814 
3643.000000	93.478863 
3642.000000	93.437266 
3641.000000	93.394184 
3640.000000	93.349029 
3639.000000	93.301184 
3638.000000	93.250947 
3637.000000	93.199458 
3636.000000	93.147289 
3635.000000	93.093765 
3634.000000	93.038093 
3633.000000	92.980805 
3632.000000	92.922693 
3631.000000	92.862454 
3630.000000	92.796905 
3629.000000	92.725247 
3628.000000	92.652069 
3627.000000	92.582036 
3626.000000	92.513985 
3625.000000	92.444429 
3624.000000	92.372051 
3623.000000	92.297017 
3622.000000	92.219176 
3621.000000	92.137486 
3620.000000	92.051454 
3619.000000	91.963076 
3618.000000	91.875831 
3617.000000	91.791354 
3616.000000	91.708349 
3615.000000	91.624491 
3614.000000	91.538340 
3613.000000	91.450070 
3612.000000	91.360739 
3611.000000	91.270560 
3610.000000	91.178699 
3609.000000	91.084785 
3608.000000	90.990097 
3607.000000	90.896665 
3606.000000	90.804974 
3605.000000	90.713550 
3604.000000	90.620544 
3603.000000	90.525364 
3602.000000	90.428703 
3601.000000	90.331967 
3600.000000	90.236420 
3599.000000	90.142361 
3598.000000	90.048866 
3597.000000	89.954524 
3596.000000	89.858956 
3595.000000	89.763066 
3594.000000	89.668270 
3593.000000	89.575228 
3592.000000	89.483464 
3591.000000	89.391575 
3590.000000	89.298307 
3589.000000	89.203441 
3588.000000	89.108658 
3587.000000	89.016529 
3586.000000	88.927830 
3585.000000	88.840830 
3584.000000	88.753575 
3583.000000	88.665860 
3582.000000	88.578452 
3581.000000	88.491956 
3580.000000	88.406506 
3579.000000	88.321990 
3578.000000	88.238201 
3577.000000	88.154858 
3576.000000	88.071960 
3575.000000	87.989794 
3574.000000	87.908888 
3573.000000	87.829628 
3572.000000	87.752178 
3571.000000	87.676020 
3570.000000	87.600128 
3569.000000	87.523674 
3568.000000	87.447283 
3567.000000	87.372931 
3566.000000	87.301820 
3565.000000	87.232625 
3564.000000	87.163103 
3563.000000	87.092673 
3562.000000	87.022737 
3561.000000	86.955082 
3560.000000	86.890423 
3559.000000	86.827963 
3558.000000	86.766245 
3557.000000	86.704453 
3556.000000	86.643032 
3555.000000	86.583003 
3554.000000	86.524846 
3553.000000	86.468100 
3552.000000	86.412056 
3551.000000	86.356464 
3550.000000	86.301651 
3549.000000	86.248287 
3548.000000	86.197120 
3547.000000	86.148615 
3546.000000	86.102587 
3545.000000	86.058250 
3544.000000	86.014785 
3543.000000	85.971844 
3542.000000	85.929523 
3541.000000	85.888114 
3540.000000	85.847964 
3539.000000	85.809292 
3538.000000	85.772036 
3537.000000	85.735975 
3536.000000	85.701037 
3535.000000	85.667282 
3534.000000	85.634680 
3533.000000	85.603178 
3532.000000	85.572922 
3531.000000	85.544145 
3530.000000	85.516775 
3529.000000	85.490488 
3528.000000	85.465179 
3527.000000	85.441117 
3526.000000	85.418551 
3525.000000	85.397379 
3524.000000	85.377313 
3523.000000	85.358096 
3522.000000	85.339463 
3521.000000	85.321172 
3520.000000	85.303279 
3519.000000	85.286269 
3518.000000	85.270794 
3517.000000	85.257271 
3516.000000	85.245548 
3515.000000	85.234754 
3514.000000	85.223643 
3513.000000	85.211562 
3512.000000	85.199219 
3511.000000	85.188247 
3510.000000	85.179813 
3509.000000	85.173643 
3508.000000	85.168424 
3507.000000	85.162957 
3506.000000	85.156825 
3505.000000	85.150268 
3504.000000	85.143832 
3503.000000	85.138128 
3502.000000	85.133625 
3501.000000	85.130459 
3500.000000	85.128402 
3499.000000	85.126977 
3498.000000	85.125722 
3497.000000	85.124573 
3496.000000	85.124073 
3495.000000	85.124904 
3494.000000	85.127061 
3493.000000	85.129626 
3492.000000	85.131467 
3491.000000	85.132191 
3490.000000	85.132478 
3489.000000	85.133571 
3488.000000	85.136319 
3487.000000	85.140520 
3486.000000	85.145131 
3485.000000	85.149164 
3484.000000	85.152474 
3483.000000	85.155734 
3482.000000	85.159800 
3481.000000	85.165133 
3480.000000	85.171522 
3479.000000	85.178116 
3478.000000	85.183855 
3477.000000	85.188271 
3476.000000	85.191969 
3475.000000	85.196205 
3474.000000	85.201881 
3473.000000	85.209000 
3472.000000	85.216978 
3471.000000	85.225172 
3470.000000	85.233110 
3469.000000	85.240570 
3468.000000	85.247694 
3467.000000	85.254906 
3466.000000	85.262546 
3465.000000	85.270572 
3464.000000	85.278709 
3463.000000	85.286804 
3462.000000	85.294929 
3461.000000	85.303174 
3460.000000	85.311453 
3459.000000	85.319606 
3458.000000	85.327691 
3457.000000	85.336083 
3456.000000	85.345213 
3455.000000	85.355163 
3454.000000	85.365648 
3453.000000	85.376352 
3452.000000	85.387129 
3451.000000	85.397791 
3450.000000	85.407898 
3449.000000	85.417099 
3448.000000	85.425662 
3447.000000	85.434441 
3446.000000	85.444178 
3445.000000	85.454949 
3444.000000	85.466311 
3443.000000	85.477809 
3442.000000	85.489226 
3441.000000	85.500581 
3440.000000	85.512052 
3439.000000	85.523836 
3438.000000	85.535934 
3437.000000	85.548087 
3436.000000	85.559959 
3435.000000	85.571382 
3434.000000	85.582403 
3433.000000	85.593175 
3432.000000	85.603885 
3431.000000	85.614767 
3430.000000	85.626046 
3429.000000	85.637802 
3428.000000	85.649880 
3427.000000	85.661980 
3426.000000	85.673912 
3425.000000	85.685777 
3424.000000	85.697899 
3423.000000	85.710590 
3422.000000	85.723992 
3421.000000	85.738086 
3420.000000	85.752681 
3419.000000	85.767338 
3418.000000	85.781452 
3417.000000	85.794567 
3416.000000	85.806648 
3415.000000	85.818078 
3414.000000	85.829468 
3413.000000	85.841452 
3412.000000	85.854450 
3411.000000	85.868396 
3410.000000	85.882738 
3409.000000	85.896830 
3408.000000	85.910398 
3407.000000	85.923631 
3406.000000	85.936927 
3405.000000	85.950582 
3404.000000	85.964601 
3403.000000	85.978668 
3402.000000	85.992373 
3401.000000	86.005621 
3400.000000	86.018727 
3399.000000	86.032000 
3398.000000	86.045327 
3397.000000	86.058434 
3396.000000	86.071533 
3395.000000	86.085411 
3394.000000	86.100660 
3393.000000	86.116924 
3392.000000	86.133107 
3391.000000	86.148386 
3390.000000	86.162900 
3389.000000	86.177457 
3388.000000	86.192692 
3387.000000	86.208614 
3386.000000	86.224858 
3385.000000	86.241142 
3384.000000	86.257401 
3383.000000	86.273617 
3382.000000	86.289703 
3381.000000	86.305512 
3380.000000	86.320833 
3379.000000	86.335452 
3378.000000	86.349420 
3377.000000	86.363340 
3376.000000	86.378152 
3375.000000	86.394417 
3374.000000	86.411830 
3373.000000	86.429459 
3372.000000	86.446417 
3371.000000	86.462348 
3370.000000	86.477520 
3369.000000	86.492627 
3368.000000	86.508300 
3367.000000	86.524514 
3366.000000	86.540518 
3365.000000	86.555589 
3364.000000	86.569907 
3363.000000	86.584467 
3362.000000	86.600047 
3361.000000	86.616457 
3360.000000	86.632951 
3359.000000	86.649163 
3358.000000	86.665377 
3357.000000	86.681929 
3356.000000	86.698646 
3355.000000	86.714998 
3354.000000	86.730699 
3353.000000	86.746037 
3352.000000	86.761651 
3351.000000	86.778053 
3350.000000	86.795284 
3349.000000	86.812906 
3348.000000	86.830317 
3347.000000	86.847163 
3346.000000	86.863525 
3345.000000	86.879719 
3344.000000	86.895978 
3343.000000	86.912310 
3342.000000	86.928530 
3341.000000	86.944330 
3340.000000	86.959386 
3339.000000	86.973682 
3338.000000	86.987812 
3337.000000	87.002767 
3336.000000	87.019162 
3335.000000	87.036649 
3334.000000	87.054219 
3333.000000	87.071058 
3332.000000	87.087047 
3331.000000	87.102534 
3330.000000	87.117873 
3329.000000	87.133270 
3328.000000	87.148861 
3327.000000	87.164694 
3326.000000	87.180623 
3325.000000	87.196387 
3324.000000	87.211834 
3323.000000	87.227004 
3322.000000	87.241948 
3321.000000	87.256612 
3320.000000	87.270995 
3319.000000	87.285369 
3318.000000	87.300153 
3317.000000	87.315479 
3316.000000	87.330937 
3315.000000	87.345871 
3314.000000	87.359962 
3313.000000	87.373521 
3312.000000	87.387215 
3311.000000	87.401506 
3310.000000	87.416295 
3309.000000	87.430993 
3308.000000	87.444934 
3307.000000	87.457793 
3306.000000	87.469742 
3305.000000	87.481247 
3304.000000	87.492718 
3303.000000	87.504339 
3302.000000	87.516149 
3301.000000	87.528172 
3300.000000	87.540374 
3299.000000	87.552553 
3298.000000	87.564379 
3297.000000	87.575655 
3296.000000	87.586528 
3295.000000	87.597388 
3294.000000	87.608539 
3293.000000	87.620018 
3292.000000	87.631702 
3291.000000	87.643462 
3290.000000	87.655086 
3289.000000	87.666197 
3288.000000	87.676522 
3287.000000	87.686302 
3286.000000	87.696178 
3285.000000	87.706475 
3284.000000	87.716773 
3283.000000	87.726412 
3282.000000	87.735346 
3281.000000	87.744261 
3280.000000	87.753812 
3279.000000	87.763923 
3278.000000	87.773842 
3277.000000	87.782754 
3276.000000	87.790361 
3275.000000	87.797130 
3274.000000	87.804000 
3273.000000	87.811632 
3272.000000	87.819790 
3271.000000	87.827541 
3270.000000	87.834093 
3269.000000	87.839354 
3268.000000	87.843771 
3267.000000	87.847935 
3266.000000	87.852388 
3265.000000	87.857452 
3264.000000	87.862947 
3263.000000	87.868269 
3262.000000	87.873033 
3261.000000	87.877553 
3260.000000	87.882424 
3259.000000	87.887687 
3258.000000	87.892703 
3257.000000	87.896906 
3256.000000	87.900472 
3255.000000	87.904130 
3254.000000	87.908401 
3253.000000	87.913093 
3252.000000	87.917504 
3251.000000	87.921098 
3250.000000	87.924010 
3249.000000	87.926911 
3248.000000	87.930323 
3247.000000	87.934071 
3246.000000	87.937390 
3245.000000	87.939579 
3244.000000	87.940608 
3243.000000	87.941178 
3242.000000	87.942221 
3241.000000	87.944243 
3240.000000	87.947071 
3239.000000	87.950206 
3238.000000	87.953362 
3237.000000	87.956592 
3236.000000	87.959972 
3235.000000	87.963406 
3234.000000	87.966713 
3233.000000	87.969687 
3232.000000	87.971999 
3231.000000	87.973352 
3230.000000	87.973939 
3229.000000	87.974591 
3228.000000	87.976205 
3227.000000	87.979052 
3226.000000	87.982744 
3225.000000	87.986720 
3224.000000	87.990630 
3223.000000	87.994404 
3222.000000	87.998219 
3221.000000	88.002348 
3220.000000	88.006835 
3219.000000	88.011330 
3218.000000	88.015460 
3217.000000	88.019349 
3216.000000	88.023562 
3215.000000	88.028507 
3214.000000	88.034049 
3213.000000	88.039771 
3212.000000	88.045442 
3211.000000	88.051111 
3210.000000	88.056822 
3209.000000	88.062371 
3208.000000	88.067461 
3207.000000	88.072141 
3206.000000	88.077010 
3205.000000	88.082818 
3204.000000	88.089755 
3203.000000	88.097251 
3202.000000	88.104544 
3201.000000	88.111364 
3200.000000	88.117931 
3199.000000	88.124490 
3198.000000	88.131096 
3197.000000	88.137804 
3196.000000	88.144748 
3195.000000	88.151975 
3194.000000	88.159370 
3193.000000	88.166834 
3192.000000	88.174379 
3191.000000	88.181950 
3190.000000	88.189340 
3189.000000	88.196436 
3188.000000	88.203477 
3187.000000	88.210917 
3186.000000	88.218990 
3185.000000	88.227436 
3184.000000	88.235650 
3183.000000	88.243123 
3182.000000	88.249863 
3181.000000	88.256449 
3180.000000	88.263639 
3179.000000	88.271747 
3178.000000	88.280376 
3177.000000	88.288770 
3176.000000	88.296475 
3175.000000	88.303645 
3174.000000	88.310734 
3173.000000	88.318002 
3172.000000	88.325343 
3171.000000	88.332536 
3170.000000	88.339523 
3169.000000	88.346418 
3168.000000	88.353340 
3167.000000	88.360350 
3166.000000	88.367510 
3165.000000	88.374922 
3164.000000	88.382625 
3163.000000	88.390496 
3162.000000	88.398292 
3161.000000	88.405799 
3160.000000	88.412943 
3159.000000	88.419758 
3158.000000	88.426242 
3157.000000	88.432325 
3156.000000	88.438054 
3155.000000	88.443797 
3154.000000	88.450118 
3153.000000	88.457325 
3152.000000	88.465191 
3151.000000	88.473184 
3150.000000	88.480901 
3149.000000	88.488180 
3148.000000	88.494910 
3147.000000	88.500966 
3146.000000	88.506447 
3145.000000	88.511813 
3144.000000	88.517653 
3143.000000	88.524230 
3142.000000	88.531251 
3141.000000	88.538057 
3140.000000	88.544104 
3139.000000	88.549385 
3138.000000	88.554389 
3137.000000	88.559613 
3136.000000	88.565100 
3135.000000	88.570537 
3134.000000	88.575782 
3133.000000	88.581129 
3132.000000	88.586988 
3131.000000	88.593366 
3130.000000	88.599780 
3129.000000	88.605688 
3128.000000	88.610979 
3127.000000	88.616062 
3126.000000	88.621474 
3125.000000	88.627354 
3124.000000	88.633284 
3123.000000	88.638669 
3122.000000	88.643239 
3121.000000	88.647189 
3120.000000	88.650941 
3119.000000	88.654876 
3118.000000	88.659253 
3117.000000	88.664179 
3116.000000	88.669513 
3115.000000	88.674852 
3114.000000	88.679770 
3113.000000	88.684180 
3112.000000	88.688450 
3111.000000	88.693071 
3110.000000	88.698122 
3109.000000	88.703113 
3108.000000	88.707481 
3107.000000	88.711278 
3106.000000	88.715219 
3105.000000	88.720002 
3104.000000	88.725657 
3103.000000	88.731555 
3102.000000	88.736871 
3101.000000	88.740995 
3100.000000	88.743794 
3099.000000	88.745777 
3098.000000	88.747934 
3097.000000	88.751168 
3096.000000	88.755758 
3095.000000	88.761340 
3094.000000	88.767238 
3093.000000	88.772710 
3092.000000	88.777126 
3091.000000	88.780334 
3090.000000	88.782896 
3089.000000	88.785733 
3088.000000	88.789402 
3087.000000	88.793749 
3086.000000	88.798203 
3085.000000	88.802302 
3084.000000	88.806033 
3083.000000	88.809858 
3082.000000	88.814281 
3081.000000	88.819156 
3080.000000	88.823556 
3079.000000	88.826672 
3078.000000	88.828823 
3077.000000	88.831218 
3076.000000	88.834646 
3075.000000	88.838745 
3074.000000	88.842620 
3073.000000	88.845805 
3072.000000	88.848438 
3071.000000	88.850873 
3070.000000	88.853459 
3069.000000	88.856531 
3068.000000	88.860258 
3067.000000	88.864495 
3066.000000	88.868956 
3065.000000	88.873467 
3064.000000	88.877920 
3063.000000	88.882057 
3062.000000	88.885512 
3061.000000	88.888167 
3060.000000	88.890423 
3059.000000	88.893057 
3058.000000	88.896656 
3057.000000	88.901051 
3056.000000	88.905378 
3055.000000	88.908894 
3054.000000	88.911699 
3053.000000	88.914451 
3052.000000	88.917425 
3051.000000	88.920247 
3050.000000	88.922583 
3049.000000	88.924759 
3048.000000	88.927472 
3047.000000	88.931148 
3046.000000	88.935749 
3045.000000	88.940903 
3044.000000	88.945898 
3043.000000	88.949834 
3042.000000	88.952265 
3041.000000	88.953750 
3040.000000	88.955446 
3039.000000	88.958055 
3038.000000	88.961266 
3037.000000	88.964302 
3036.000000	88.966906 
3035.000000	88.969732 
3034.000000	88.973690 
3033.000000	88.978855 
3032.000000	88.984073 
3031.000000	88.987893 
3030.000000	88.989950 
3029.000000	88.991232 
3028.000000	88.992940 
3027.000000	88.995386 
3026.000000	88.998149 
3025.000000	89.000902 
3024.000000	89.003669 
3023.000000	89.006435 
3022.000000	89.008968 
3021.000000	89.011157 
3020.000000	89.013253 
3019.000000	89.015688 
3018.000000	89.018748 
3017.000000	89.022397 
3016.000000	89.026226 
3015.000000	89.029559 
3014.000000	89.031850 
3013.000000	89.033136 
3012.000000	89.034069 
3011.000000	89.035463 
3010.000000	89.037714 
3009.000000	89.040513 
3008.000000	89.043048 
3007.000000	89.044603 
3006.000000	89.045134 
3005.000000	89.045286 
3004.000000	89.045837 
3003.000000	89.047206 
3002.000000	89.049433 
3001.000000	89.052284 
3000.000000	89.055165 
2999.000000	89.057226 
2998.000000	89.057980 
2997.000000	89.057792 
2996.000000	89.057512 
2995.000000	89.057642 
2994.000000	89.058092 
2993.000000	89.058568 
2992.000000	89.058768 
2991.000000	89.058209 
2990.000000	89.056382 
2989.000000	89.053393 
2988.000000	89.050151 
2987.000000	89.047588 
2986.000000	89.045801 
2985.000000	89.044184 
2984.000000	89.042229 
2983.000000	89.039880 
2982.000000	89.037153 
2981.000000	89.033802 
2980.000000	89.029546 
2979.000000	89.024447 
2978.000000	89.018857 
2977.000000	89.012999 
2976.000000	89.006701 
2975.000000	88.999510 
2974.000000	88.990989 
2973.000000	88.980975 
2972.000000	88.969721 
2971.000000	88.957776 
2970.000000	88.945573 
2969.000000	88.932978 
2968.000000	88.919385 
2967.000000	88.904471 
2966.000000	88.888903 
2965.000000	88.874157 
2964.000000	88.861513 
2963.000000	88.851264 
2962.000000	88.842843 
2961.000000	88.835589 
2960.000000	88.829310 
2959.000000	88.824301 
2958.000000	88.821002 
2957.000000	88.819653 
2956.000000	88.820160 
2955.000000	88.822199 
2954.000000	88.825428 
2953.000000	88.829559 
2952.000000	88.834224 
2951.000000	88.838805 
2950.000000	88.842456 
2949.000000	88.844328 
2948.000000	88.843829 
2947.000000	88.840739 
2946.000000	88.835101 
2945.000000	88.827032 
2944.000000	88.816680 
2943.000000	88.804328 
2942.000000	88.790319 
2941.000000	88.774715 
2940.000000	88.757152 
2939.000000	88.737257 
2938.000000	88.715164 
2937.000000	88.691394 
2936.000000	88.666302 
2935.000000	88.640044 
2934.000000	88.613205 
2933.000000	88.587036 
2932.000000	88.562666 
2931.000000	88.540221 
2930.000000	88.519070 
2929.000000	88.498902 
2928.000000	88.480264 
2927.000000	88.464046 
2926.000000	88.450821 
2925.000000	88.440942 
2924.000000	88.435102 
2923.000000	88.434366 
2922.000000	88.439485 
2921.000000	88.450352 
2920.000000	88.466463 
2919.000000	88.487905 
2918.000000	88.515558 
2917.000000	88.550022 
2916.000000	88.590403 
2915.000000	88.634359 
2914.000000	88.679264 
2913.000000	88.723152 
2912.000000	88.764697 
2911.000000	88.802786 
2910.000000	88.836569 
2909.000000	88.865950 
2908.000000	88.891766 
2907.000000	88.915245 
2906.000000	88.937190 
2905.000000	88.957671 
2904.000000	88.976426 
2903.000000	88.993434 
2902.000000	89.009095 
2901.000000	89.023939 
2900.000000	89.038359 
2899.000000	89.052481 
2898.000000	89.066194 
2897.000000	89.079325 
2896.000000	89.091895 
2895.000000	89.104297 
2894.000000	89.117018 
2893.000000	89.130092 
2892.000000	89.142928 
2891.000000	89.154829 
2890.000000	89.165605 
2889.000000	89.175598 
2888.000000	89.185215 
2887.000000	89.194563 
2886.000000	89.203455 
2885.000000	89.211604 
2884.000000	89.218814 
2883.000000	89.225079 
2882.000000	89.230476 
2881.000000	89.234886 
2880.000000	89.237886 
2879.000000	89.239096 
2878.000000	89.238681 
2877.000000	89.237390 
2876.000000	89.235974 
2875.000000	89.234536 
2874.000000	89.232473 
2873.000000	89.229158 
2872.000000	89.224816 
2871.000000	89.220696 
2870.000000	89.218221 
2869.000000	89.217832 
2868.000000	89.218613 
2867.000000	89.218939 
2866.000000	89.217330 
2865.000000	89.212877 
2864.000000	89.205382 
2863.000000	89.195405 
2862.000000	89.183859 
2861.000000	89.171173 
2860.000000	89.156952 
2859.000000	89.140730 
2858.000000	89.122927 
2857.000000	89.104835 
2856.000000	89.087903 
2855.000000	89.073463 
2854.000000	89.063075 
2853.000000	89.058628 
2852.000000	89.061935 
2851.000000	89.074359 
2850.000000	89.096643 
2849.000000	89.128539 
2848.000000	89.168357 
2847.000000	89.213110 
2846.000000	89.259388 
2845.000000	89.304225 
2844.000000	89.345575 
2843.000000	89.382518 
2842.000000	89.415144 
2841.000000	89.443949 
2840.000000	89.469171 
2839.000000	89.490882 
2838.000000	89.509633 
2837.000000	89.526537 
2836.000000	89.542418 
2835.000000	89.557130 
2834.000000	89.569996 
2833.000000	89.580761 
2832.000000	89.589910 
2831.000000	89.598235 
2830.000000	89.606392 
2829.000000	89.614805 
2828.000000	89.623602 
2827.000000	89.632514 
2826.000000	89.641016 
2825.000000	89.648735 
2824.000000	89.655688 
2823.000000	89.662165 
2822.000000	89.668510 
2821.000000	89.675037 
2820.000000	89.681922 
2819.000000	89.688987 
2818.000000	89.695663 
2817.000000	89.701421 
2816.000000	89.706355 
2815.000000	89.711196 
2814.000000	89.716622 
2813.000000	89.722643 
2812.000000	89.728770 
2811.000000	89.734734 
2810.000000	89.740786 
2809.000000	89.747263 
2808.000000	89.754127 
2807.000000	89.761081 
2806.000000	89.767961 
2805.000000	89.774766 
2804.000000	89.781406 
2803.000000	89.787703 
2802.000000	89.793687 
2801.000000	89.799652 
2800.000000	89.805822 
2799.000000	89.812082 
2798.000000	89.818139 
2797.000000	89.823897 
2796.000000	89.829619 
2795.000000	89.835703 
2794.000000	89.842280 
2793.000000	89.848981 
2792.000000	89.855186 
2791.000000	89.860597 
2790.000000	89.865605 
2789.000000	89.871007 
2788.000000	89.877382 
2787.000000	89.884698 
2786.000000	89.892356 
2785.000000	89.899504 
2784.000000	89.905510 
2783.000000	89.910444 
2782.000000	89.915125 
2781.000000	89.920485 
2780.000000	89.926794 
2779.000000	89.933588 
2778.000000	89.940259 
2777.000000	89.946499 
2776.000000	89.952257 
2775.000000	89.957597 
2774.000000	89.962767 
2773.000000	89.968143 
2772.000000	89.973926 
2771.000000	89.979984 
2770.000000	89.986138 
2769.000000	89.992432 
2768.000000	89.999005 
2767.000000	90.005814 
2766.000000	90.012657 
2765.000000	90.019372 
2764.000000	90.025833 
2763.000000	90.031846 
2762.000000	90.037293 
2761.000000	90.042441 
2760.000000	90.047907 
2759.000000	90.054195 
2758.000000	90.061240 
2757.000000	90.068472 
2756.000000	90.075293 
2755.000000	90.081508 
2754.000000	90.087373 
2753.000000	90.093302 
2752.000000	90.099558 
2751.000000	90.106155 
2750.000000	90.112937 
2749.000000	90.119673 
2748.000000	90.126113 
2747.000000	90.132107 
2746.000000	90.137760 
2745.000000	90.143418 
2744.000000	90.149405 
2743.000000	90.155728 
2742.000000	90.162090 
2741.000000	90.168243 
2740.000000	90.174329 
2739.000000	90.180752 
2738.000000	90.187665 
2737.000000	90.194705 
2736.000000	90.201401 
2735.000000	90.207770 
2734.000000	90.214301 
2733.000000	90.221316 
2732.000000	90.228580 
2731.000000	90.235605 
2730.000000	90.242085 
2729.000000	90.247934 
2728.000000	90.253259 
2727.000000	90.258591 
2726.000000	90.264810 
2725.000000	90.272324 
2724.000000	90.280399 
2723.000000	90.287791 
2722.000000	90.294138 
2721.000000	90.300325 
2720.000000	90.307400 
2719.000000	90.315518 
2718.000000	90.324099 
2717.000000	90.332538 
2716.000000	90.340438 
2715.000000	90.347505 
2714.000000	90.353743 
2713.000000	90.359663 
2712.000000	90.365904 
2711.000000	90.372626 
2710.000000	90.379525 
2709.000000	90.386397 
2708.000000	90.393380 
2707.000000	90.400581 
2706.000000	90.407715 
2705.000000	90.414289 
2704.000000	90.420135 
2703.000000	90.425752 
2702.000000	90.432116 
2701.000000	90.439930 
2700.000000	90.448870 
2699.000000	90.457714 
2698.000000	90.465481 
2697.000000	90.472392 
2696.000000	90.479444 
2695.000000	90.487113 
2694.000000	90.494860 
2693.000000	90.502007 
2692.000000	90.508643 
2691.000000	90.515330 
2690.000000	90.522227 
2689.000000	90.528960 
2688.000000	90.535382 
2687.000000	90.542032 
2686.000000	90.549594 
2685.000000	90.558038 
2684.000000	90.566529 
2683.000000	90.574223 
2682.000000	90.581045 
2681.000000	90.587660 
2680.000000	90.594794 
2679.000000	90.602647 
2678.000000	90.610880 
2677.000000	90.618994 
2676.000000	90.626680 
2675.000000	90.633990 
2674.000000	90.641299 
2673.000000	90.649008 
2672.000000	90.657112 
2671.000000	90.665118 
2670.000000	90.672528 
2669.000000	90.679434 
2668.000000	90.686479 
2667.000000	90.694222 
2666.000000	90.702632 
2665.000000	90.711197 
2664.000000	90.719393 
2663.000000	90.727044 
2662.000000	90.734401 
2661.000000	90.741930 
2660.000000	90.749881 
2659.000000	90.758024 
2658.000000	90.765932 
2657.000000	90.773563 
2656.000000	90.781351 
2655.000000	90.789654 
2654.000000	90.798312 
2653.000000	90.806863 
2652.000000	90.815005 
2651.000000	90.822688 
2650.000000	90.829990 
2649.000000	90.837186 
2648.000000	90.844840 
2647.000000	90.853457 
2646.000000	90.862925 
2645.000000	90.872515 
2644.000000	90.881561 
2643.000000	90.890063 
2642.000000	90.898531 
2641.000000	90.907315 
2640.000000	90.916217 
2639.000000	90.924835 
2638.000000	90.933183 
2637.000000	90.941778 
2636.000000	90.950985 
2635.000000	90.960449 
2634.000000	90.969473 
2633.000000	90.977931 
2632.000000	90.986450 
2631.000000	90.995560 
2630.000000	91.005002 
2629.000000	91.014115 
2628.000000	91.022636 
2627.000000	91.030836 
2626.000000	91.039107 
2625.000000	91.047764 
2624.000000	91.057064 
2623.000000	91.066949 
2622.000000	91.076830 
2621.000000	91.086037 
2620.000000	91.094561 
2619.000000	91.103016 
2618.000000	91.111854 
2617.000000	91.120954 
2616.000000	91.130050 
2615.000000	91.139132 
2614.000000	91.148235 
2613.000000	91.157183 
2612.000000	91.165833 
2611.000000	91.174392 
2610.000000	91.183240 
2609.000000	91.192534 
2608.000000	91.202137 
2607.000000	91.211834 
2606.000000	91.221435 
2605.000000	91.230770 
2604.000000	91.239732 
2603.000000	91.248357 
2602.000000	91.256839 
2601.000000	91.265489 
2600.000000	91.274567 
2599.000000	91.283986 
2598.000000	91.293231 
2597.000000	91.301833 
2596.000000	91.309959 
2595.000000	91.318287 
2594.000000	91.327243 
2593.000000	91.336623 
2592.000000	91.346042 
2591.000000	91.355443 
2590.000000	91.364980 
2589.000000	91.374639 
2588.000000	91.384218 
2587.000000	91.393555 
2586.000000	91.402616 
2585.000000	91.411489 
2584.000000	91.420402 
2583.000000	91.429581 
2582.000000	91.438960 
2581.000000	91.448198 
2580.000000	91.457104 
2579.000000	91.465887 
2578.000000	91.474841 
2577.000000	91.484000 
2576.000000	91.493239 
2575.000000	91.502523 
2574.000000	91.511858 
2573.000000	91.521185 
2572.000000	91.530533 
2571.000000	91.540077 
2570.000000	91.549801 
2569.000000	91.559236 
2568.000000	91.567856 
2567.000000	91.575691 
2566.000000	91.583318 
2565.000000	91.591306 
2564.000000	91.599862 
2563.000000	91.608980 
2562.000000	91.618615 
2561.000000	91.628631 
2560.000000	91.638733 
2559.000000	91.648564 
2558.000000	91.657865 
2557.000000	91.666662 
2556.000000	91.675355 
2555.000000	91.684503 
2554.000000	91.694281 
2553.000000	91.704206 
2552.000000	91.713562 
2551.000000	91.722103 
2550.000000	91.730201 
2549.000000	91.738389 
2548.000000	91.746951 
2547.000000	91.755917 
2546.000000	91.765173 
2545.000000	91.774450 
2544.000000	91.783403 
2543.000000	91.791872 
2542.000000	91.800057 
2541.000000	91.808353 
2540.000000	91.817046 
2539.000000	91.826176 
2538.000000	91.835604 
2537.000000	91.845116 
2536.000000	91.854494 
2535.000000	91.863635 
2534.000000	91.872647 
2533.000000	91.881757 
2532.000000	91.891034 
2531.000000	91.900235 
2530.000000	91.909056 
2529.000000	91.917547 
2528.000000	91.926125 
2527.000000	91.935105 
2526.000000	91.944324 
2525.000000	91.953362 
2524.000000	91.962049 
2523.000000	91.970609 
2522.000000	91.979355 
2521.000000	91.988379 
2520.000000	91.997475 
2519.000000	92.006246 
2518.000000	92.014393 
2517.000000	92.022104 
2516.000000	92.030105 
2515.000000	92.039093 
2514.000000	92.049088 
2513.000000	92.059491 
2512.000000	92.069725 
2511.000000	92.079590 
2510.000000	92.089034 
2509.000000	92.097959 
2508.000000	92.106432 
2507.000000	92.114835 
2506.000000	92.123542 
2505.000000	92.132509 
2504.000000	92.141350 
2503.000000	92.149819 
2502.000000	92.158147 
2501.000000	92.166834 
2500.000000	92.176058 
2499.000000	92.185338 
2498.000000	92.193931 
2497.000000	92.201679 
2496.000000	92.209257 
2495.000000	92.217430 
2494.000000	92.226253 
2493.000000	92.235275 
2492.000000	92.244299 
2491.000000	92.253460 
2490.000000	92.262609 
2489.000000	92.271135 
2488.000000	92.278621 
2487.000000	92.285373 
2486.000000	92.292150 
2485.000000	92.299573 
2484.000000	92.307881 
2483.000000	92.316892 
2482.000000	92.326049 
2481.000000	92.334782 
2480.000000	92.343064 
2479.000000	92.351433 
2478.000000	92.360281 
2477.000000	92.369325 
2476.000000	92.377946 
2475.000000	92.385863 
2474.000000	92.393304 
2473.000000	92.400705 
2472.000000	92.408434 
2471.000000	92.416653 
2470.000000	92.425216 
2469.000000	92.433794 
2468.000000	92.442201 
2467.000000	92.450489 
2466.000000	92.458613 
2465.000000	92.466262 
2464.000000	92.473295 
2463.000000	92.480188 
2462.000000	92.487680 
2461.000000	92.495953 
2460.000000	92.504477 
2459.000000	92.512770 
2458.000000	92.521036 
2457.000000	92.529770 
2456.000000	92.538863 
2455.000000	92.547460 
2454.000000	92.554862 
2453.000000	92.561311 
2452.000000	92.567667 
2451.000000	92.574479 
2450.000000	92.581727 
2449.000000	92.589379 
2448.000000	92.597624 
2447.000000	92.606364 
2446.000000	92.614928 
2445.000000	92.622674 
2444.000000	92.629652 
2443.000000	92.636345 
2442.000000	92.643089 
2441.000000	92.650133 
2440.000000	92.657939 
2439.000000	92.666741 
2438.000000	92.675843 
2437.000000	92.683987 
2436.000000	92.690641 
2435.000000	92.696537 
2434.000000	92.702834 
2433.000000	92.710112 
2432.000000	92.718271 
2431.000000	92.726942 
2430.000000	92.735706 
2429.000000	92.744180 
2428.000000	92.752184 
2427.000000	92.759717 
2426.000000	92.766697 
2425.000000	92.772970 
2424.000000	92.778669 
2423.000000	92.784313 
2422.000000	92.790395 
2421.000000	92.797023 
2420.000000	92.804056 
2419.000000	92.811364 
2418.000000	92.818807 
2417.000000	92.826128 
2416.000000	92.833109 
2415.000000	92.839857 
2414.000000	92.846818 
2413.000000	92.854426 
2412.000000	92.862618 
2411.000000	92.870668 
2410.000000	92.877684 
2409.000000	92.883474 
2408.000000	92.888820 
2407.000000	92.894729 
2406.000000	92.901537 
2405.000000	92.908884 
2404.000000	92.916321 
2403.000000	92.923592 
2402.000000	92.930505 
2401.000000	92.936954 
2400.000000	92.943115 
2399.000000	92.949307 
2398.000000	92.955655 
2397.000000	92.962126 
2396.000000	92.968810 
2395.000000	92.975800 
2394.000000	92.982871 
2393.000000	92.989669 
2392.000000	92.996185 
2391.000000	93.002758 
2390.000000	93.009534 
2389.000000	93.016281 
2388.000000	93.022790 
2387.000000	93.029168 
2386.000000	93.035678 
2385.000000	93.042522 
2384.000000	93.049760 
2383.000000	93.057102 
2382.000000	93.063765 
2381.000000	93.068821 
2380.000000	93.071970 
2379.000000	93.073846 
2378.000000	93.075481 
2377.000000	93.078307 
2376.000000	93.084054 
2375.000000	93.093894 
2374.000000	93.107011 
2373.000000	93.120158 
2372.000000	93.130175 
2371.000000	93.136323 
2370.000000	93.139978 
2369.000000	93.143569 
2368.000000	93.150290 
2367.000000	93.161705 
2366.000000	93.174782 
2365.000000	93.185537 
2364.000000	93.194271 
2363.000000	93.200525 
2362.000000	93.203392 
2361.000000	93.204827 
2360.000000	93.207051 
2359.000000	93.214102 
2358.000000	93.222788 
2357.000000	93.225799 
2356.000000	93.222031 
2355.000000	93.213148 
2354.000000	93.205597 
2353.000000	93.207437 
2352.000000	93.232622 
2351.000000	93.282597 
2350.000000	93.331615 
2349.000000	93.352064 
2348.000000	93.333279 
2347.000000	93.295818 
2346.000000	93.268954 
2345.000000	93.263648 
2344.000000	93.273422 
2343.000000	93.281735 
2342.000000	93.287100 
2341.000000	93.290240 
2340.000000	93.292806 
2339.000000	93.296156 
2338.000000	93.299676 
2337.000000	93.302769 
2336.000000	93.305342 
2335.000000	93.308461 
2334.000000	93.310793 
2333.000000	93.310404 
2332.000000	93.307866 
2331.000000	93.309202 
2330.000000	93.312762 
2329.000000	93.322282 
2328.000000	93.332558 
2327.000000	93.343556 
2326.000000	93.350603 
2325.000000	93.352345 
2324.000000	93.352496 
2323.000000	93.351753 
2322.000000	93.352218 
2321.000000	93.352057 
2320.000000	93.353048 
2319.000000	93.356650 
2318.000000	93.361619 
2317.000000	93.366622 
2316.000000	93.369144 
2315.000000	93.371778 
2314.000000	93.374268 
2313.000000	93.378704 
2312.000000	93.382867 
2311.000000	93.387979 
2310.000000	93.392226 
2309.000000	93.397113 
2308.000000	93.402229 
2307.000000	93.409003 
2306.000000	93.415732 
2305.000000	93.421396 
2304.000000	93.424684 
2303.000000	93.426751 
2302.000000	93.427834 
2301.000000	93.429195 
2300.000000	93.430512 
2299.000000	93.432956 
2298.000000	93.435824 
2297.000000	93.439431 
2296.000000	93.442644 
2295.000000	93.445788 
2294.000000	93.448389 
2293.000000	93.451028 
2292.000000	93.454211 
2291.000000	93.458430 
2290.000000	93.462996 
2289.000000	93.466628 
2288.000000	93.468957 
2287.000000	93.470525 
2286.000000	93.472227 
2285.000000	93.474196 
2284.000000	93.476464 
2283.000000	93.478748 
2282.000000	93.480904 
2281.000000	93.482813 
2280.000000	93.485076 
2279.000000	93.488289 
2278.000000	93.492328 
2277.000000	93.496228 
2276.000000	93.499151 
2275.000000	93.501304 
2274.000000	93.503224 
2273.000000	93.505466 
2272.000000	93.508197 
2271.000000	93.511188 
2270.000000	93.513595 
2269.000000	93.514654 
2268.000000	93.514639 
2267.000000	93.514698 
2266.000000	93.515517 
2265.000000	93.516961 
2264.000000	93.518626 
2263.000000	93.520591 
2262.000000	93.523030 
2261.000000	93.525771 
2260.000000	93.528713 
2259.000000	93.531595 
2258.000000	93.534066 
2257.000000	93.535646 
2256.000000	93.536465 
2255.000000	93.537187 
2254.000000	93.538278 
2253.000000	93.539851 
2252.000000	93.541818 
2251.000000	93.544226 
2250.000000	93.546853 
2249.000000	93.549566 
2248.000000	93.552438 
2247.000000	93.555479 
2246.000000	93.557949 
2245.000000	93.559090 
2244.000000	93.559295 
2243.000000	93.559895 
2242.000000	93.561571 
2241.000000	93.563671 
2240.000000	93.565287 
2239.000000	93.566314 
2238.000000	93.567269 
2237.000000	93.568613 
2236.000000	93.570571 
2235.000000	93.573044 
2234.000000	93.575532 
2233.000000	93.577493 
2232.000000	93.578936 
2231.000000	93.580272 
2230.000000	93.581700 
2229.000000	93.583299 
2228.000000	93.585586 
2227.000000	93.589208 
2226.000000	93.593980 
2225.000000	93.598933 
2224.000000	93.603377 
2223.000000	93.607231 
2222.000000	93.610243 
2221.000000	93.611823 
2220.000000	93.611973 
2219.000000	93.611677 
2218.000000	93.611928 
2217.000000	93.612911 
2216.000000	93.614326 
2215.000000	93.615947 
2214.000000	93.617568 
2213.000000	93.618951 
2212.000000	93.620088 
2211.000000	93.621104 
2210.000000	93.621826 
2209.000000	93.622025 
2208.000000	93.622201 
2207.000000	93.623423 
2206.000000	93.626130 
2205.000000	93.629627 
2204.000000	93.632947 
2203.000000	93.635603 
2202.000000	93.637351 
2201.000000	93.637974 
2200.000000	93.637722 
2199.000000	93.637381 
2198.000000	93.637520 
2197.000000	93.638059 
2196.000000	93.638766 
2195.000000	93.639654 
2194.000000	93.640611 
2193.000000	93.641200 
2192.000000	93.641223 
2191.000000	93.641079 
2190.000000	93.641277 
2189.000000	93.641901 
2188.000000	93.642741 
2187.000000	93.643570 
2186.000000	93.644095 
2185.000000	93.644025 
2184.000000	93.643408 
2183.000000	93.642658 
2182.000000	93.642160 
2181.000000	93.642096 
2180.000000	93.642582 
2179.000000	93.643527 
2178.000000	93.644390 
2177.000000	93.644558 
2176.000000	93.644010 
2175.000000	93.643218 
2174.000000	93.642494 
2173.000000	93.641957 
2172.000000	93.641984 
2171.000000	93.643026 
2170.000000	93.644929 
2169.000000	93.647055 
2168.000000	93.649045 
2167.000000	93.650817 
2166.000000	93.651849 
2165.000000	93.651334 
2164.000000	93.649357 
2163.000000	93.647248 
2162.000000	93.646416 
2161.000000	93.647215 
2160.000000	93.649041 
2159.000000	93.651024 
2158.000000	93.652471 
2157.000000	93.653188 
2156.000000	93.653617 
2155.000000	93.654322 
2154.000000	93.655319 
2153.000000	93.656271 
2152.000000	93.657215 
2151.000000	93.658525 
2150.000000	93.660234 
2149.000000	93.661990 
2148.000000	93.663604 
2147.000000	93.664990 
2146.000000	93.665657 
2145.000000	93.665111 
2144.000000	93.663920 
2143.000000	93.663547 
2142.000000	93.664859 
2141.000000	93.667316 
2140.000000	93.669747 
2139.000000	93.671379 
2138.000000	93.672060 
2137.000000	93.672157 
2136.000000	93.672422 
2135.000000	93.673415 
2134.000000	93.674899 
2133.000000	93.676209 
2132.000000	93.677130 
2131.000000	93.677915 
2130.000000	93.678611 
2129.000000	93.679101 
2128.000000	93.679649 
2127.000000	93.680549 
2126.000000	93.681262 
2125.000000	93.680848 
2124.000000	93.679411 
2123.000000	93.678237 
2122.000000	93.678208 
2121.000000	93.678856 
2120.000000	93.679279 
2119.000000	93.679276 
2118.000000	93.679256 
2117.000000	93.679604 
2116.000000	93.680414 
2115.000000	93.681439 
2114.000000	93.682128 
2113.000000	93.682116 
2112.000000	93.681680 
2111.000000	93.681282 
2110.000000	93.680835 
2109.000000	93.680036 
2108.000000	93.679211 
2107.000000	93.679003 
2106.000000	93.679293 
2105.000000	93.679259 
2104.000000	93.678534 
2103.000000	93.677480 
2102.000000	93.676332 
2101.000000	93.674999 
2100.000000	93.673816 
2099.000000	93.673470 
2098.000000	93.673924 
2097.000000	93.674224 
2096.000000	93.673706 
2095.000000	93.672659 
2094.000000	93.671477 
2093.000000	93.670040 
2092.000000	93.668335 
2091.000000	93.666913 
2090.000000	93.666177 
2089.000000	93.665728 
2088.000000	93.664902 
2087.000000	93.663561 
2086.000000	93.662024 
2085.000000	93.660557 
2084.000000	93.659236 
2083.000000	93.658070 
2082.000000	93.657041 
2081.000000	93.656155 
2080.000000	93.655461 
2079.000000	93.654820 
2078.000000	93.653873 
2077.000000	93.652541 
2076.000000	93.651249 
2075.000000	93.650236 
2074.000000	93.648967 
2073.000000	93.646950 
2072.000000	93.644719 
2071.000000	93.643216 
2070.000000	93.642481 
2069.000000	93.641662 
2068.000000	93.640227 
2067.000000	93.638396 
2066.000000	93.636575 
2065.000000	93.635134 
2064.000000	93.634527 
2063.000000	93.634776 
2062.000000	93.634911 
2061.000000	93.633775 
2060.000000	93.631378 
2059.000000	93.628734 
2058.000000	93.626515 
2057.000000	93.624653 
2056.000000	93.623015 
2055.000000	93.621514 
2054.000000	93.619691 
2053.000000	93.617247 
2052.000000	93.614828 
2051.000000	93.613269 
2050.000000	93.612222 
2049.000000	93.610586 
2048.000000	93.608251 
2047.000000	93.606307 
2046.000000	93.605320 
2045.000000	93.604416 
2044.000000	93.602459 
2043.000000	93.599333 
2042.000000	93.595824 
2041.000000	93.592962 
2040.000000	93.591571 
2039.000000	93.591603 
2038.000000	93.591769 
2037.000000	93.590644 
2036.000000	93.588216 
2035.000000	93.585620 
2034.000000	93.583427 
2033.000000	93.581192 
2032.000000	93.578714 
2031.000000	93.576551 
2030.000000	93.575036 
2029.000000	93.573845 
2028.000000	93.572685 
2027.000000	93.571486 
2026.000000	93.569685 
2025.000000	93.566566 
2024.000000	93.562597 
2023.000000	93.559261 
2022.000000	93.557102 
2021.000000	93.554862 
2020.000000	93.551312 
2019.000000	93.547110 
2018.000000	93.544065 
2017.000000	93.543105 
2016.000000	93.543556 
2015.000000	93.544026 
2014.000000	93.543510 
2013.000000	93.541927 
2012.000000	93.539916 
2011.000000	93.537969 
2010.000000	93.535771 
2009.000000	93.532799 
2008.000000	93.529361 
2007.000000	93.526350 
2006.000000	93.523981 
2005.000000	93.521689 
2004.000000	93.519245 
2003.000000	93.517018 
2002.000000	93.515130 
2001.000000	93.512991 
2000.000000	93.510203 
1999.000000	93.506998 
1998.000000	93.503756 
1997.000000	93.500791 
1996.000000	93.498162 
1995.000000	93.495305 
1994.000000	93.491338 
1993.000000	93.486504 
1992.000000	93.482632 
1991.000000	93.481061 
1990.000000	93.480675 
1989.000000	93.479461 
1988.000000	93.477285 
1987.000000	93.475490 
1986.000000	93.474244 
1985.000000	93.472171 
1984.000000	93.468750 
1983.000000	93.465210 
1982.000000	93.462626 
1981.000000	93.460530 
1980.000000	93.458210 
1979.000000	93.455755 
1978.000000	93.453300 
1977.000000	93.450527 
1976.000000	93.447352 
1975.000000	93.444281 
1974.000000	93.441480 
1973.000000	93.438390 
1972.000000	93.434602 
1971.000000	93.430351 
1970.000000	93.425883 
1969.000000	93.421235 
1968.000000	93.416939 
1967.000000	93.413995 
1966.000000	93.412575 
1965.000000	93.411494 
1964.000000	93.409524 
1963.000000	93.406586 
1962.000000	93.403319 
1961.000000	93.400254 
1960.000000	93.397637 
1959.000000	93.395303 
1958.000000	93.392604 
1957.000000	93.389174 
1956.000000	93.385709 
1955.000000	93.383150 
1954.000000	93.381216 
1953.000000	93.378916 
1952.000000	93.376216 
1951.000000	93.374052 
1950.000000	93.372468 
1949.000000	93.370117 
1948.000000	93.366412 
1947.000000	93.362349 
1946.000000	93.358555 
1945.000000	93.354213 
1944.000000	93.348890 
1943.000000	93.344132 
1942.000000	93.341778 
1941.000000	93.341409 
1940.000000	93.340958 
1939.000000	93.339293 
1938.000000	93.336922 
1937.000000	93.334752 
1936.000000	93.333099 
1935.000000	93.331589 
1934.000000	93.329450 
1933.000000	93.326199 
1932.000000	93.322055 
1931.000000	93.317681 
1930.000000	93.313248 
1929.000000	93.308300 
1928.000000	93.303199 
1927.000000	93.298697 
1926.000000	93.294583 
1925.000000	93.289710 
1924.000000	93.284121 
1923.000000	93.280034 
1922.000000	93.278820 
1921.000000	93.278922 
1920.000000	93.278179 
1919.000000	93.276742 
1918.000000	93.276076 
1917.000000	93.275945 
1916.000000	93.274470 
1915.000000	93.270716 
1914.000000	93.265346 
1913.000000	93.259521 
1912.000000	93.254055 
1911.000000	93.249484 
1910.000000	93.245992 
1909.000000	93.243268 
1908.000000	93.241009 
1907.000000	93.238801 
1906.000000	93.236144 
1905.000000	93.232575 
1904.000000	93.228311 
1903.000000	93.224610 
1902.000000	93.222149 
1901.000000	93.220397 
1900.000000	93.218734 
1899.000000	93.216919 
1898.000000	93.214652 
1897.000000	93.211368 
1896.000000	93.206948 
1895.000000	93.202151 
1894.000000	93.197371 
1893.000000	93.192192 
1892.000000	93.186725 
1891.000000	93.182390 
1890.000000	93.180547 
1889.000000	93.180716 
1888.000000	93.180841 
1887.000000	93.179311 
1886.000000	93.176164 
1885.000000	93.172686 
1884.000000	93.170313 
1883.000000	93.169338 
1882.000000	93.168217 
1881.000000	93.164997 
1880.000000	93.159650 
1879.000000	93.153904 
1878.000000	93.149173 
1877.000000	93.145468 
1876.000000	93.142008 
1875.000000	93.138371 
1874.000000	93.134463 
1873.000000	93.130105 
1872.000000	93.125724 
1871.000000	93.122721 
1870.000000	93.122347 
1869.000000	93.124153 
1868.000000	93.125914 
1867.000000	93.125319 
1866.000000	93.121484 
1865.000000	93.115160 
1864.000000	93.108074 
1863.000000	93.101728 
1862.000000	93.096318 
1861.000000	93.091303 
1860.000000	93.086901 
1859.000000	93.083874 
1858.000000	93.081995 
1857.000000	93.080153 
1856.000000	93.078031 
1855.000000	93.076280 
1854.000000	93.074945 
1853.000000	93.072769 
1852.000000	93.069027 
1851.000000	93.063893 
1850.000000	93.057779 
1849.000000	93.051578 
1848.000000	93.046557 
1847.000000	93.044000 
1846.000000	93.044313 
1845.000000	93.046963 
1844.000000	93.049878 
1843.000000	93.050031 
1842.000000	93.046412 
1841.000000	93.040715 
1840.000000	93.035416 
1839.000000	93.032207 
1838.000000	93.031058 
1837.000000	93.030091 
1836.000000	93.027726 
1835.000000	93.024226 
1834.000000	93.020697 
1833.000000	93.018571 
1832.000000	93.019719 
1831.000000	93.024706 
1830.000000	93.030669 
1829.000000	93.032351 
1828.000000	93.027133 
1827.000000	93.017913 
1826.000000	93.009247 
1825.000000	93.003277 
1824.000000	92.999311 
1823.000000	92.995979 
1822.000000	92.992748 
1821.000000	92.989385 
1820.000000	92.985449 
1819.000000	92.980836 
1818.000000	92.976502 
1817.000000	92.973546 
1816.000000	92.971994 
1815.000000	92.970630 
1814.000000	92.967754 
1813.000000	92.963602 
1812.000000	92.960502 
1811.000000	92.960239 
1810.000000	92.961577 
1809.000000	92.961272 
1808.000000	92.958463 
1807.000000	92.955107 
1806.000000	92.951928 
1805.000000	92.946822 
1804.000000	92.938276 
1803.000000	92.928951 
1802.000000	92.923821 
1801.000000	92.925785 
1800.000000	92.932190 
1799.000000	92.936628 
1798.000000	92.934944 
1797.000000	92.928368 
1796.000000	92.921824 
1795.000000	92.918947 
1794.000000	92.919133 
1793.000000	92.919335 
1792.000000	92.916979 
1791.000000	92.912030 
1790.000000	92.906457 
1789.000000	92.901118 
1788.000000	92.895116 
1787.000000	92.887645 
1786.000000	92.879427 
1785.000000	92.872773 
1784.000000	92.869931 
1783.000000	92.871271 
1782.000000	92.872797 
1781.000000	92.872725 
1780.000000	92.868750 
1779.000000	92.854735 
1778.000000	92.853456 
1777.000000	92.850725 
1776.000000	92.847162 
1775.000000	92.842355 
1774.000000	92.837088 
1773.000000	92.830533 
1772.000000	92.823376 
1771.000000	92.817040 
1770.000000	92.812433 
1769.000000	92.807746 
1768.000000	92.805784 
1767.000000	92.813819 
1766.000000	92.813964 
1765.000000	92.814801 
1764.000000	92.809183 
1763.000000	92.801777 
1762.000000	92.796861 
1761.000000	92.793169 
1760.000000	92.785766 
1759.000000	92.773891 
1758.000000	92.760230 
1757.000000	92.747476 
1756.000000	92.736869 
1755.000000	92.725562 
1754.000000	92.708368 
1753.000000	92.683392 
1752.000000	92.656685 
1751.000000	92.638706 
1750.000000	92.632803 
1749.000000	92.630263 
1748.000000	92.621060 
1747.000000	92.603084 
1746.000000	92.579297 
1745.000000	92.554041 
1744.000000	92.532187 
1743.000000	92.519006 
1742.000000	92.516195 
1741.000000	92.518863 
1740.000000	92.519980 
1739.000000	92.516348 
1738.000000	92.508081 
1737.000000	92.495071 
1736.000000	92.478707 
1735.000000	92.466821 
1734.000000	92.467116 
1733.000000	92.474592 
1732.000000	92.480601 
1731.000000	92.484072 
1730.000000	92.485884 
1729.000000	92.486538 
1728.000000	92.486958 
1727.000000	92.487272 
1726.000000	92.486659 
1725.000000	92.484843 
1724.000000	92.482403 
1723.000000	92.480854 
1722.000000	92.480517 
1721.000000	92.479093 
1720.000000	92.475735 
1719.000000	92.474107 
1718.000000	92.477972 
1717.000000	92.483166 
1716.000000	92.482924 
1715.000000	92.477508 
1714.000000	92.469760 
1713.000000	92.460085 
1712.000000	92.449292 
1711.000000	92.439946 
1710.000000	92.433510 
1709.000000	92.430016 
1708.000000	92.430167 
1707.000000	92.433266 
1706.000000	92.434353 
1705.000000	92.426542 
1704.000000	92.408928 
1703.000000	92.388329 
1702.000000	92.373178 
1701.000000	92.371053 
1700.000000	92.376726 
1699.000000	92.371798 
1698.000000	92.349437 
1697.000000	92.316284 
1696.000000	92.281468 
1695.000000	92.252902 
1694.000000	92.229114 
1693.000000	92.203611 
1692.000000	92.172270 
1691.000000	92.136546 
1690.000000	92.101557 
1689.000000	92.069698 
1688.000000	92.040949 
1687.000000	92.014633 
1686.000000	91.991360 
1685.000000	91.971525 
1684.000000	91.948937 
1683.000000	91.914989 
1682.000000	91.869002 
1681.000000	91.816826 
1680.000000	91.764723 
1679.000000	91.719308 
1678.000000	91.681630 
1677.000000	91.645627 
1676.000000	91.606585 
1675.000000	91.564809 
1674.000000	91.520365 
1673.000000	91.472353 
1672.000000	91.422041 
1671.000000	91.372657 
1670.000000	91.324318 
1669.000000	91.269544 
1668.000000	91.204074 
1667.000000	91.135260 
1666.000000	91.071371 
1665.000000	91.012050 
1664.000000	90.953311 
1663.000000	90.893360 
1662.000000	90.829607 
1661.000000	90.758547 
1660.000000	90.681113 
1659.000000	90.602744 
1658.000000	90.529328 
1657.000000	90.462327 
1656.000000	90.399419 
1655.000000	90.339005 
1654.000000	90.280027 
1653.000000	90.206562 
1652.000000	90.105163 
1651.000000	90.002538 
1650.000000	89.922129 
1649.000000	89.848670 
1648.000000	89.764472 
1647.000000	89.667714 
1646.000000	89.563849 
1645.000000	89.455513 
1644.000000	89.346767 
1643.000000	89.242821 
1642.000000	89.142709 
1641.000000	89.043512 
1640.000000	88.947186 
1639.000000	88.859083 
1638.000000	88.779919 
1637.000000	88.701284 
1636.000000	88.612513 
1635.000000	88.510872 
1634.000000	88.404647 
1633.000000	88.303564 
1632.000000	88.211870 
1631.000000	88.133184 
1630.000000	88.071141 
1629.000000	88.022977 
1628.000000	87.981310 
1627.000000	87.944036 
1626.000000	87.915143 
1625.000000	87.897582 
1624.000000	87.890878 
1623.000000	87.893370 
1622.000000	87.902575 
1621.000000	87.916277 
1620.000000	87.936225 
1619.000000	87.969604 
1618.000000	88.027099 
1617.000000	88.111063 
1616.000000	88.205061 
1615.000000	88.291747 
1614.000000	88.373057 
1613.000000	88.459501 
1612.000000	88.557631 
1611.000000	88.668696 
1610.000000	88.788397 
1609.000000	88.909833 
1608.000000	89.027705 
1607.000000	89.139812 
1606.000000	89.245516 
1605.000000	89.344703 
1604.000000	89.437060 
1603.000000	89.521782 
1602.000000	89.598549 
1601.000000	89.666899 
1600.000000	89.726296 
1599.000000	89.777746 
1598.000000	89.824064 
1597.000000	89.867184 
1596.000000	89.906180 
1595.000000	89.939276 
1594.000000	89.966210 
1593.000000	89.987434 
1592.000000	90.002722 
1591.000000	90.012433 
1590.000000	90.018949 
1589.000000	90.025350 
1588.000000	90.033740 
1587.000000	90.046243 
1586.000000	90.065891 
1585.000000	90.094758 
1584.000000	90.133096 
1583.000000	90.179922 
1582.000000	90.234435 
1581.000000	90.295250 
1580.000000	90.358813 
1579.000000	90.423136 
1578.000000	90.493307 
1577.000000	90.578279 
1576.000000	90.673547 
1575.000000	90.758133 
1574.000000	90.821938 
1573.000000	90.874939 
1572.000000	90.929630 
1571.000000	90.994330 
1570.000000	91.065239 
1569.000000	91.129123 
1568.000000	91.170411 
1567.000000	91.203127 
1566.000000	91.223244 
1565.000000	91.225813 
1564.000000	91.266001 
1563.000000	91.292111 
1562.000000	91.314093 
1561.000000	91.329287 
1560.000000	91.345036 
1559.000000	91.366609 
1558.000000	91.398782 
1557.000000	91.436595 
1556.000000	91.473613 
1555.000000	91.507416 
1554.000000	91.538081 
1553.000000	91.565725 
1552.000000	91.589872 
1551.000000	91.611374 
1550.000000	91.633326 
1549.000000	91.657755 
1548.000000	91.682325 
1547.000000	91.703214 
1546.000000	91.721289 
1545.000000	91.737711 
1544.000000	91.759691 
1543.000000	91.774885 
1542.000000	91.801570 
1541.000000	91.806466 
1540.000000	91.874004 
1539.000000	92.031613 
1538.000000	92.012188 
1537.000000	92.021163 
1536.000000	92.024042 
1535.000000	92.046153 
1534.000000	92.076187 
1533.000000	92.114562 
1532.000000	92.145742 
1531.000000	92.167064 
1530.000000	92.185251 
1529.000000	92.206238 
1528.000000	92.230965 
1527.000000	92.259651 
1526.000000	92.294391 
1525.000000	92.334677 
1524.000000	92.374001 
1523.000000	92.406336 
1522.000000	92.433483 
1521.000000	92.460477 
1520.000000	92.488158 
1519.000000	92.514569 
1518.000000	92.538765 
1517.000000	92.560825 
1516.000000	92.580059 
1515.000000	92.594895 
1514.000000	92.605708 
1513.000000	92.615842 
1512.000000	92.628367 
1511.000000	92.643370 
1510.000000	92.659572 
1509.000000	92.680082 
1508.000000	92.715241 
1507.000000	92.772518 
1506.000000	92.832919 
1505.000000	92.866145 
1504.000000	92.874663 
1503.000000	92.876729 
1502.000000	92.880512 
1501.000000	92.890807 
1500.000000	92.909305 
1499.000000	92.932421 
1498.000000	92.954682 
1497.000000	92.973437 
1496.000000	92.987696 
1495.000000	92.997792 
1494.000000	93.005142 
1493.000000	93.010470 
1492.000000	93.014798 
1491.000000	93.021831 
1490.000000	93.036064 
1489.000000	93.057444 
1488.000000	93.079692 
1487.000000	93.096042 
1486.000000	93.104957 
1485.000000	93.109489 
1484.000000	93.113460 
1483.000000	93.117323 
1482.000000	93.120115 
1481.000000	93.121756 
1480.000000	93.121684 
1479.000000	93.118431 
1478.000000	93.111682 
1477.000000	93.103741 
1476.000000	93.096191 
1475.000000	93.087221 
1474.000000	93.073626 
1473.000000	93.055021 
1472.000000	93.032120 
1471.000000	93.003849 
1470.000000	92.970330 
1469.000000	92.934906 
1468.000000	92.902573 
1467.000000	92.877155 
1466.000000	92.858071 
1465.000000	92.840760 
1464.000000	92.819876 
1463.000000	92.793037 
1462.000000	92.762986 
1461.000000	92.733360 
1460.000000	92.704677 
1459.000000	92.673883 
1458.000000	92.638081 
1457.000000	92.599448 
1456.000000	92.565696 
1455.000000	92.543990 
1454.000000	92.534056 
1453.000000	92.531622 
1452.000000	92.535999 
1451.000000	92.548674 
1450.000000	92.569383 
1449.000000	92.597850 
1448.000000	92.634628 
1447.000000	92.677097 
1446.000000	92.719198 
1445.000000	92.758508 
1444.000000	92.796643 
1443.000000	92.834597 
1442.000000	92.872279 
1441.000000	92.908115 
1440.000000	92.939110 
1439.000000	92.963400 
1438.000000	92.985672 
1437.000000	93.015055 
1436.000000	93.053270 
1435.000000	93.091234 
1434.000000	93.121679 
1433.000000	93.146031 
1432.000000	93.169390 
1431.000000	93.194735 
1430.000000	93.220880 
1429.000000	93.244979 
1428.000000	93.265099 
1427.000000	93.280874 
1426.000000	93.293448 
1425.000000	93.306476 
1424.000000	93.322377 
1423.000000	93.337805 
1422.000000	93.347491 
1421.000000	93.351454 
1420.000000	93.356564 
1419.000000	93.369309 
1418.000000	93.389846 
1417.000000	93.414453 
1416.000000	93.439972 
1415.000000	93.464516 
1414.000000	93.487135 
1413.000000	93.508011 
1412.000000	93.528254 
1411.000000	93.549684 
1410.000000	93.574080 
1409.000000	93.601316 
1408.000000	93.629184 
1407.000000	93.656330 
1406.000000	93.684325 
1405.000000	93.716355 
1404.000000	93.752033 
1403.000000	93.786087 
1402.000000	93.814883 
1401.000000	93.840330 
1400.000000	93.866672 
1399.000000	93.895250 
1398.000000	93.924294 
1397.000000	93.952841 
1396.000000	93.982516 
1395.000000	94.015340 
1394.000000	94.050652 
1393.000000	94.085426 
1392.000000	94.116355 
1391.000000	94.141387 
1390.000000	94.161005 
1389.000000	94.178486 
1388.000000	94.197909 
1387.000000	94.221428 
1386.000000	94.248193 
1385.000000	94.275111 
1384.000000	94.298806 
1383.000000	94.317891 
1382.000000	94.333813 
1381.000000	94.348370 
1380.000000	94.361801 
1379.000000	94.374584 
1378.000000	94.389197 
1377.000000	94.407911 
1376.000000	94.429817 
1375.000000	94.452337 
1374.000000	94.474890 
1373.000000	94.498508 
1372.000000	94.522190 
1371.000000	94.543641 
1370.000000	94.563070 
1369.000000	94.583374 
1368.000000	94.605527 
1367.000000	94.626275 
1366.000000	94.642435 
1365.000000	94.654509 
1364.000000	94.665730 
1363.000000	94.679879 
1362.000000	94.699900 
1361.000000	94.725535 
1360.000000	94.752558 
1359.000000	94.776376 
1358.000000	94.795922 
1357.000000	94.813200 
1356.000000	94.829754 
1355.000000	94.845381 
1354.000000	94.860233 
1353.000000	94.875350 
1352.000000	94.890889 
1351.000000	94.906168 
1350.000000	94.921179 
1349.000000	94.936632 
1348.000000	94.951963 
1347.000000	94.965671 
1346.000000	94.978200 
1345.000000	94.991255 
1344.000000	95.004188 
1343.000000	95.013718 
1342.000000	95.018379 
1341.000000	95.020932 
1340.000000	95.025926 
1339.000000	95.036462 
1338.000000	95.053335 
1337.000000	95.075120 
1336.000000	95.098454 
1335.000000	95.119869 
1334.000000	95.138233 
1333.000000	95.154265 
1332.000000	95.167832 
1331.000000	95.177780 
1330.000000	95.184452 
1329.000000	95.189919 
1328.000000	95.195300 
1327.000000	95.200266 
1326.000000	95.205522 
1325.000000	95.213515 
1324.000000	95.225829 
1323.000000	95.241976 
1322.000000	95.261320 
1321.000000	95.283664 
1320.000000	95.307734 
1319.000000	95.331533 
1318.000000	95.354830 
1317.000000	95.378730 
1316.000000	95.402671 
1315.000000	95.424716 
1314.000000	95.445093 
1313.000000	95.466258 
1312.000000	95.488727 
1311.000000	95.509939 
1310.000000	95.528235 
1309.000000	95.544978 
1308.000000	95.561752 
1307.000000	95.578412 
1306.000000	95.594842 
1305.000000	95.611879 
1304.000000	95.629160 
1303.000000	95.644733 
1302.000000	95.658196 
1301.000000	95.671606 
1300.000000	95.686300 
1299.000000	95.701185 
1298.000000	95.715280 
1297.000000	95.729377 
1296.000000	95.744104 
1295.000000	95.758649 
1294.000000	95.772461 
1293.000000	95.786022 
1292.000000	95.798926 
1291.000000	95.809654 
1290.000000	95.818260 
1289.000000	95.827150 
1288.000000	95.838220 
1287.000000	95.851169 
1286.000000	95.865138 
1285.000000	95.879661 
1284.000000	95.893295 
1283.000000	95.903915 
1282.000000	95.911463 
1281.000000	95.918303 
1280.000000	95.926065 
1279.000000	95.934201 
1278.000000	95.942156 
1277.000000	95.950544 
1276.000000	95.959487 
1275.000000	95.968038 
1274.000000	95.975900 
1273.000000	95.983622 
1272.000000	95.990604 
1271.000000	95.995124 
1270.000000	95.996789 
1269.000000	95.996684 
1268.000000	95.994875 
1267.000000	95.990336 
1266.000000	95.983687 
1265.000000	95.977265 
1264.000000	95.972155 
1263.000000	95.968021 
1262.000000	95.966200 
1261.000000	95.969803 
1260.000000	95.979834 
1259.000000	95.993902 
1258.000000	96.009594 
1257.000000	96.026410 
1256.000000	96.043680 
1255.000000	96.059711 
1254.000000	96.074208 
1253.000000	96.088937 
1252.000000	96.104794 
1251.000000	96.120607 
1250.000000	96.135795 
1249.000000	96.151577 
1248.000000	96.168315 
1247.000000	96.184101 
1246.000000	96.197466 
1245.000000	96.209389 
1244.000000	96.221433 
1243.000000	96.233777 
1242.000000	96.245960 
1241.000000	96.257608 
1240.000000	96.267782 
1239.000000	96.275749 
1238.000000	96.283042 
1237.000000	96.292540 
1236.000000	96.304868 
1235.000000	96.317760 
1234.000000	96.329362 
1233.000000	96.339932 
1232.000000	96.349962 
1231.000000	96.359192 
1230.000000	96.367994 
1229.000000	96.377285 
1228.000000	96.386571 
1227.000000	96.394383 
1226.000000	96.400934 
1225.000000	96.407953 
1224.000000	96.415768 
1223.000000	96.423168 
1222.000000	96.430278 
1221.000000	96.438655 
1220.000000	96.448167 
1219.000000	96.456603 
1218.000000	96.462907 
1217.000000	96.468169 
1216.000000	96.473082 
1215.000000	96.477275 
1214.000000	96.481404 
1213.000000	96.486831 
1212.000000	96.492763 
1211.000000	96.496788 
1210.000000	96.498832 
1209.000000	96.501501 
1208.000000	96.505927 
1207.000000	96.510333 
1206.000000	96.513494 
1205.000000	96.516642 
1204.000000	96.520994 
1203.000000	96.525905 
1202.000000	96.530229 
1201.000000	96.533359 
1200.000000	96.534695 
1199.000000	96.534428 
1198.000000	96.534746 
1197.000000	96.537606 
1196.000000	96.541468 
1195.000000	96.543099 
1194.000000	96.542353 
1193.000000	96.542027 
1192.000000	96.543174 
1191.000000	96.544058 
1190.000000	96.543929 
1189.000000	96.544226 
1188.000000	96.545453 
1187.000000	96.546221 
1186.000000	96.546092 
1185.000000	96.546292 
1184.000000	96.547006 
1183.000000	96.546938 
1182.000000	96.546062 
1181.000000	96.545822 
1180.000000	96.546200 
1179.000000	96.545617 
1178.000000	96.544256 
1177.000000	96.544410 
1176.000000	96.547056 
1175.000000	96.550877 
1174.000000	96.554767 
1173.000000	96.558390 
1172.000000	96.560353 
1171.000000	96.559303 
1170.000000	96.557073 
1169.000000	96.557217 
1168.000000	96.560075 
1167.000000	96.562725 
1166.000000	96.563987 
1165.000000	96.565622 
1164.000000	96.568079 
1163.000000	96.569253 
1162.000000	96.568611 
1161.000000	96.568556 
1160.000000	96.570226 
1159.000000	96.571506 
1158.000000	96.570729 
1157.000000	96.569143 
1156.000000	96.568266 
1155.000000	96.567895 
1154.000000	96.568012 
1153.000000	96.569561 
1152.000000	96.571907 
1151.000000	96.572437 
1150.000000	96.570063 
1149.000000	96.566546 
1148.000000	96.563372 
1147.000000	96.560049 
1146.000000	96.556372 
1145.000000	96.553314 
1144.000000	96.550573 
1143.000000	96.546219 
1142.000000	96.540078 
1141.000000	96.534585 
1140.000000	96.530925 
1139.000000	96.527137 
1138.000000	96.521472 
1137.000000	96.514925 
1136.000000	96.508951 
1135.000000	96.503092 
1134.000000	96.496352 
1133.000000	96.488814 
1132.000000	96.480601 
1131.000000	96.471140 
1130.000000	96.460471 
1129.000000	96.449472 
1128.000000	96.438137 
1127.000000	96.425744 
1126.000000	96.413240 
1125.000000	96.403077 
1124.000000	96.395837 
1123.000000	96.389150 
1122.000000	96.380660 
1121.000000	96.370023 
1120.000000	96.357527 
1119.000000	96.343233 
1118.000000	96.328354 
1117.000000	96.315244 
1116.000000	96.305074 
1115.000000	96.297247 
1114.000000	96.291405 
1113.000000	96.287765 
1112.000000	96.285002 
1111.000000	96.280224 
1110.000000	96.271961 
1109.000000	96.261277 
1108.000000	96.249466 
1107.000000	96.236931 
1106.000000	96.224726 
1105.000000	96.214600 
1104.000000	96.206548 
1103.000000	96.198384 
1102.000000	96.188509 
1101.000000	96.177257 
1100.000000	96.165128 
1099.000000	96.152010 
1098.000000	96.138731 
1097.000000	96.126973 
1096.000000	96.116791 
1095.000000	96.106263 
1094.000000	96.094456 
1093.000000	96.082934 
1092.000000	96.073690 
1091.000000	96.067384 
1090.000000	96.063941 
1089.000000	96.062676 
1088.000000	96.061175 
1087.000000	96.056381 
1086.000000	96.047921 
1085.000000	96.038516 
1084.000000	96.030281 
1083.000000	96.022604 
1082.000000	96.014488 
1081.000000	96.006734 
1080.000000	96.000289 
1079.000000	95.994125 
1078.000000	95.986508 
1077.000000	95.977544 
1076.000000	95.969141 
1075.000000	95.962882 
1074.000000	95.958642 
1073.000000	95.954911 
1072.000000	95.950147 
1071.000000	95.944197 
1070.000000	95.938350 
1069.000000	95.933474 
1068.000000	95.928590 
1067.000000	95.922101 
1066.000000	95.913748 
1065.000000	95.904155 
1064.000000	95.893212 
1063.000000	95.880599 
1062.000000	95.867418 
1061.000000	95.855392 
1060.000000	95.844424 
1059.000000	95.832502 
1058.000000	95.818141 
1057.000000	95.801810 
1056.000000	95.785180 
1055.000000	95.770098 
1054.000000	95.757790 
1053.000000	95.747630 
1052.000000	95.737169 
1051.000000	95.725017 
1050.000000	95.713041 
1049.000000	95.703721 
1048.000000	95.696196 
1047.000000	95.687394 
1046.000000	95.676342 
1045.000000	95.664824 
1044.000000	95.654255 
1043.000000	95.644253 
1042.000000	95.634241 
1041.000000	95.624301 
1040.000000	95.613985 
1039.000000	95.602055 
1038.000000	95.588027 
1037.000000	95.572639 
1036.000000	95.556391 
1035.000000	95.539004 
1034.000000	95.520703 
1033.000000	95.502568 
1032.000000	95.484978 
1031.000000	95.466912 
1030.000000	95.447517 
1029.000000	95.427358 
1028.000000	95.407303 
1027.000000	95.386889 
1026.000000	95.364702 
1025.000000	95.340285 
1024.000000	95.315238 
1023.000000	95.292422 
1022.000000	95.273944 
1021.000000	95.259623 
1020.000000	95.247421 
1019.000000	95.235531 
1018.000000	95.223813 
1017.000000	95.213011 
1016.000000	95.203232 
1015.000000	95.193943 
1014.000000	95.185032 
1013.000000	95.176850 
1012.000000	95.169210 
1011.000000	95.161249 
1010.000000	95.152467 
1009.000000	95.143136 
1008.000000	95.133353 
1007.000000	95.122289 
1006.000000	95.108660 
1005.000000	95.091512 
1004.000000	95.070471 
1003.000000	95.045978 
1002.000000	95.019714 
1001.000000	94.994110 
1000.000000	94.970720 
999.000000	 94.949082 
998.000000	 94.927354 
997.000000	 94.903860 
996.000000	 94.877830 
995.000000	 94.849242 
994.000000	 94.818790 
993.000000	 94.787965 
992.000000	 94.758256 
991.000000	 94.729729 
990.000000	 94.700820 
989.000000	 94.669991 
988.000000	 94.637305 
987.000000	 94.603963 
986.000000	 94.570810 
985.000000	 94.538044 
984.000000	 94.505945 
983.000000	 94.474653 
982.000000	 94.443045 
981.000000	 94.409010 
980.000000	 94.371492 
979.000000	 94.331621 
978.000000	 94.291451 
977.000000	 94.252236 
976.000000	 94.214254 
975.000000	 94.177345 
974.000000	 94.140826 
973.000000	 94.103535 
972.000000	 94.064731 
971.000000	 94.024645 
970.000000	 93.983833 
969.000000	 93.942625 
968.000000	 93.901551 
967.000000	 93.861346 
966.000000	 93.821744 
965.000000	 93.781000 
964.000000	 93.737525 
963.000000	 93.691615 
962.000000	 93.644973 
961.000000	 93.598937 
960.000000	 93.553728 
959.000000	 93.508893 
958.000000	 93.463886 
957.000000	 93.418460 
956.000000	 93.372752 
955.000000	 93.326632 
954.000000	 93.279209 
953.000000	 93.229951 
952.000000	 93.180219 
951.000000	 93.132277 
950.000000	 93.086371 
949.000000	 93.040020 
948.000000	 92.990642 
947.000000	 92.937756 
946.000000	 92.882402 
945.000000	 92.825974 
944.000000	 92.770217 
943.000000	 92.716775 
942.000000	 92.665695 
941.000000	 92.615328 
940.000000	 92.564256 
939.000000	 92.512395 
938.000000	 92.460314 
937.000000	 92.409044 
936.000000	 92.360507 
935.000000	 92.315928 
934.000000	 92.273332 
933.000000	 92.228746 
932.000000	 92.180566 
931.000000	 92.130752 
930.000000	 92.081231 
929.000000	 92.031413 
928.000000	 91.980027 
927.000000	 91.927045 
926.000000	 91.872735 
925.000000	 91.817015 
924.000000	 91.760808 
923.000000	 91.705998 
922.000000	 91.653072 
921.000000	 91.600690 
920.000000	 91.548041 
919.000000	 91.495214 
918.000000	 91.440856 
917.000000	 91.382669 
916.000000	 91.321355 
915.000000	 91.261072 
914.000000	 91.204481 
913.000000	 91.149939 
912.000000	 91.094734 
911.000000	 91.038179 
910.000000	 90.980196 
909.000000	 90.920043 
908.000000	 90.858382 
907.000000	 90.797882 
906.000000	 90.739942 
905.000000	 90.683074 
904.000000	 90.625616 
903.000000	 90.567326 
902.000000	 90.507598 
901.000000	 90.445521 
900.000000	 90.382851 
899.000000	 90.323207 
898.000000	 90.266913 
897.000000	 90.210187 
896.000000	 90.150797 
895.000000	 90.090831 
894.000000	 90.032458 
893.000000	 89.974995 
892.000000	 89.917775 
891.000000	 89.861730 
890.000000	 89.806273 
889.000000	 89.748781 
888.000000	 89.689160 
887.000000	 89.630682 
886.000000	 89.574214 
885.000000	 89.516021 
884.000000	 89.453788 
883.000000	 89.390532 
882.000000	 89.329735 
881.000000	 89.270693 
880.000000	 89.211503 
879.000000	 89.152513 
878.000000	 89.093825 
877.000000	 89.033405 
876.000000	 88.970669 
875.000000	 88.908285 
874.000000	 88.847955 
873.000000	 88.788162 
872.000000	 88.727857 
871.000000	 88.668032 
870.000000	 88.608141 
869.000000	 88.545900 
868.000000	 88.482424 
867.000000	 88.422683 
866.000000	 88.368886 
865.000000	 88.317873 
864.000000	 88.266531 
863.000000	 88.215066 
862.000000	 88.163427 
861.000000	 88.109790 
860.000000	 88.054643 
859.000000	 88.001432 
858.000000	 87.950884 
857.000000	 87.899297 
856.000000	 87.844382 
855.000000	 87.788153 
854.000000	 87.732345 
853.000000	 87.675871 
852.000000	 87.618415 
851.000000	 87.561542 
850.000000	 87.504799 
849.000000	 87.446121 
848.000000	 87.387360 
847.000000	 87.333350 
846.000000	 87.283812 
845.000000	 87.232503 
844.000000	 87.176541 
843.000000	 87.120384 
842.000000	 87.068293 
841.000000	 87.019020 
840.000000	 86.970270 
839.000000	 86.922085 
838.000000	 86.873110 
837.000000	 86.819589 
836.000000	 86.761110 
835.000000	 86.702106 
834.000000	 86.645371 
833.000000	 86.589446 
832.000000	 86.534060 
831.000000	 86.481613 
830.000000	 86.430805 
829.000000	 86.375704 
828.000000	 86.314519 
827.000000	 86.252692 
826.000000	 86.193923 
825.000000	 86.135279 
824.000000	 86.074596 
823.000000	 86.014471 
822.000000	 85.955492 
821.000000	 85.894327 
820.000000	 85.831069 
819.000000	 85.769594 
818.000000	 85.709123 
817.000000	 85.644282 
816.000000	 85.575406 
815.000000	 85.510350 
814.000000	 85.453303 
813.000000	 85.399370 
812.000000	 85.342865 
811.000000	 85.283288 
810.000000	 85.220629 
809.000000	 85.153215 
808.000000	 85.083636 
807.000000	 85.018689 
806.000000	 84.959638 
805.000000	 84.900053 
804.000000	 84.836582 
803.000000	 84.773881 
802.000000	 84.715287 
801.000000	 84.656834 
800.000000	 84.594989 
799.000000	 84.532936 
798.000000	 84.474756 
797.000000	 84.419956 
796.000000	 84.367238 
795.000000	 84.316774 
794.000000	 84.265554 
793.000000	 84.208033 
792.000000	 84.145174 
791.000000	 84.085724 
790.000000	 84.034813 
789.000000	 83.987945 
788.000000	 83.939241 
787.000000	 83.888221 
786.000000	 83.835070 
785.000000	 83.776909 
784.000000	 83.713222 
783.000000	 83.648708 
782.000000	 83.587088 
781.000000	 83.527686 
780.000000	 83.470128 
779.000000	 83.415562 
778.000000	 83.361173 
777.000000	 83.301072 
776.000000	 83.235374 
775.000000	 83.171190 
774.000000	 83.112202 
773.000000	 83.054493 
772.000000	 82.994548 
771.000000	 82.933294 
770.000000	 82.870176 
769.000000	 82.802059 
768.000000	 82.730867 
767.000000	 82.663872 
766.000000	 82.603399 
765.000000	 82.544302 
764.000000	 82.483769 
763.000000	 82.424854 
762.000000	 82.368163 
761.000000	 82.309703 
760.000000	 82.249800 
759.000000	 82.194259 
758.000000	 82.143268 
757.000000	 82.088999 
756.000000	 82.027935 
755.000000	 81.965800 
754.000000	 81.906557 
753.000000	 81.846657 
752.000000	 81.784268 
751.000000	 81.723820 
750.000000	 81.666441 
749.000000	 81.605667 
748.000000	 81.537926 
747.000000	 81.468405 
746.000000	 81.401696 
745.000000	 81.335523 
744.000000	 81.268332 
743.000000	 81.203909 
742.000000	 81.143475 
741.000000	 81.081950 
740.000000	 81.016595 
739.000000	 80.950795 
738.000000	 80.885424 
737.000000	 80.815708 
736.000000	 80.740658 
735.000000	 80.666313 
734.000000	 80.595692 
733.000000	 80.524852 
732.000000	 80.452417 
731.000000	 80.382902 
730.000000	 80.316682 
729.000000	 80.247180 
728.000000	 80.171877 
727.000000	 80.095906 
726.000000	 80.021441 
725.000000	 79.944337 
724.000000	 79.864868 
723.000000	 79.790013 
722.000000	 79.720962 
721.000000	 79.649835 
720.000000	 79.574026 
719.000000	 79.501915 
718.000000	 79.437437 
717.000000	 79.372211 
716.000000	 79.299483 
715.000000	 79.223078 
714.000000	 79.146962 
713.000000	 79.067639 
712.000000	 78.983314 
711.000000	 78.899673 
710.000000	 78.819864 
709.000000	 78.739280 
708.000000	 78.656185 
707.000000	 78.576489 
706.000000	 78.501969 
705.000000	 78.424433 
704.000000	 78.338386 
703.000000	 78.249755 
702.000000	 78.165095 
701.000000	 78.082081 
700.000000	 77.996805 
699.000000	 77.909942 
698.000000	 77.821043 
697.000000	 77.727400 
696.000000	 77.632881 
695.000000	 77.546390 
694.000000	 77.466193 
693.000000	 77.379274 
692.000000	 77.281953 
691.000000	 77.185895 
690.000000	 77.096963 
689.000000	 77.003235 
688.000000	 76.894343 
687.000000	 76.778885 
686.000000	 76.670199 
685.000000	 76.568891 
684.000000	 76.469439 
683.000000	 76.370030 
682.000000	 76.267918 
681.000000	 76.158435 
680.000000	 76.043844 
679.000000	 75.931735 
678.000000	 75.820242 
677.000000	 75.700817 
676.000000	 75.576315 
675.000000	 75.453400 
674.000000	 75.329218 
673.000000	 75.199729 
672.000000	 75.078476 
671.000000	 74.973006 
670.000000	 74.861456 
669.000000	 74.678041 
668.000000	 74.405515 
667.000000	 74.177038 
666.000000	 74.051295 
665.000000	 73.945686 
664.000000	 73.810596 
663.000000	 73.650109 
662.000000	 73.481469 
661.000000	 73.307087 
660.000000	 73.124568 
659.000000	 72.944624 
658.000000	 72.772339 
657.000000	 72.596688 
656.000000	 72.414073 
655.000000	 72.237919 
654.000000	 72.074678 
653.000000	 71.912133 
652.000000	 71.741826 
651.000000	 71.570674 
650.000000	 71.398080 
649.000000	 71.208422 
648.000000	 70.999374 
647.000000	 70.790209 
646.000000	 70.587712 
645.000000	 70.372493 
644.000000	 70.133160 
643.000000	 69.885411 
642.000000	 69.642806 
641.000000	 69.397016 
640.000000	 69.144272 
639.000000	 68.902972 
638.000000	 68.685264 
637.000000	 68.477431 
636.000000	 68.267720 
635.000000	 68.066850 
634.000000	 67.881113 
633.000000	 67.692052 
632.000000	 67.482531 
631.000000	 67.257384 
630.000000	 67.020962 
629.000000	 66.760227 
628.000000	 66.467968 
627.000000	 66.158551 
626.000000	 65.843658 
625.000000	 65.516736 
624.000000	 65.179265 
623.000000	 64.855428 
622.000000	 64.560830 
621.000000	 64.283956 
620.000000	 64.016643 
619.000000	 63.773224 
618.000000	 63.560880 
617.000000	 63.362500 
616.000000	 63.170751 
615.000000	 63.004281 
614.000000	 62.869297 
613.000000	 62.742392 
612.000000	 62.610118 
611.000000	 62.490344 
610.000000	 62.393943 
609.000000	 62.300014 
608.000000	 62.191164 
607.000000	 62.077050 
606.000000	 61.960199 
605.000000	 61.816524 
604.000000	 61.635260 
603.000000	 61.439364 
602.000000	 61.242068 
601.000000	 61.023313 
600.000000	 60.771542 
599.000000	 60.507616 
598.000000	 60.243650 
597.000000	 59.958928 
596.000000	 59.641866 
595.000000	 59.315198 
594.000000	 58.993939 
593.000000	 58.659977 
592.000000	 58.305088 
591.000000	 57.955882 
590.000000	 57.626427 
589.000000	 57.289313 
588.000000	 56.923644 
587.000000	 56.548853 
586.000000	 56.182498 
585.000000	 55.809093 
584.000000	 55.421246 
583.000000	 55.045672 
582.000000	 54.696147 
581.000000	 54.346572 
580.000000	 53.983674 
579.000000	 53.638866 
578.000000	 53.334773 
577.000000	 53.049179 
576.000000	 52.764454 
575.000000	 52.502890 
574.000000	 52.279799 
573.000000	 52.071808 
572.000000	 51.863649 
571.000000	 51.675100 
570.000000	 51.511599 
569.000000	 51.340980 
568.000000	 51.151059 
567.000000	 50.975927 
566.000000	 50.832423 
565.000000	 50.687037 
564.000000	 50.518317 
563.000000	 50.354042 
562.000000	 50.212908 
561.000000	 50.066188 
560.000000	 49.893314 
559.000000	 49.720349 
558.000000	 49.566201 
557.000000	 49.403967 
556.000000	 49.213054 
555.000000	 49.017341 
554.000000	 48.835189 
553.000000	 48.644234 
552.000000	 48.431223 
551.000000	 48.222669 
550.000000	 48.031122 
549.000000	 47.825869 
548.000000	 47.591610 
547.000000	 47.360089 
546.000000	 47.148924 
545.000000	 46.926828 
544.000000	 46.675600 
543.000000	 46.426486 
542.000000	 46.198095 
541.000000	 45.960233 
540.000000	 45.697125 
539.000000	 45.442365 
538.000000	 45.211135 
537.000000	 44.963606 
536.000000	 44.678418 
535.000000	 44.395386 
534.000000	 44.139818 
533.000000	 43.871509 
532.000000	 43.557229 
531.000000	 43.227285 
530.000000	 42.910537 
529.000000	 42.579554 
528.000000	 42.211576 
527.000000	 41.837003 
526.000000	 41.475260 
525.000000	 41.091991 
524.000000	 40.675491 
523.000000	 40.277978 
522.000000	 39.925963 
521.000000	 39.569329 
520.000000	 39.170747 
519.000000	 38.766847 
518.000000	 38.384101 
517.000000	 37.977709 
516.000000	 37.518524 
515.000000	 37.049475 
514.000000	 36.591648 
513.000000	 36.091305 
512.000000	 35.522910 
511.000000	 34.947142 
510.000000	 34.399811 
509.000000	 33.820114 
508.000000	 33.160379 
507.000000	 32.468673 
506.000000	 31.788321 
505.000000	 31.077463 
504.000000	 30.308699 
503.000000	 29.545218 
502.000000	 28.835669 
501.000000	 28.135179 
500.000000	 27.416471 
499.000000	 26.742474 
498.000000	 26.144572 
497.000000	 25.551996 
496.000000	 24.923448 
495.000000	 24.325611 
494.000000	 23.794108 
493.000000	 23.245844 
492.000000	 22.624454 
491.000000	 22.001320 
490.000000	 21.433747 
489.000000	 20.863221 
488.000000	 20.256991 
487.000000	 19.701324 
486.000000	 19.246613 
485.000000	 18.806413 
484.000000	 18.321707 
483.000000	 17.872052 
482.000000	 17.508165 
481.000000	 17.141762 
480.000000	 16.718666 
479.000000	 16.328342 
478.000000	 16.023186 
477.000000	 15.699613 
476.000000	 15.285785 
475.000000	 14.872384 
474.000000	 14.526651 
473.000000	 14.152728 
472.000000	 13.681344 
471.000000	 13.211529 
470.000000	 12.803138 
469.000000	 12.340936 
468.000000	 11.751379 
467.000000	 11.144554 
466.000000	 10.596831 
465.000000	 9.992559  
464.000000	 9.239437  
463.000000	 8.433047  
462.000000	 7.651337  
461.000000	 6.796312  
460.000000	 5.808278  
459.000000	 4.827460  
458.000000	 3.967403  
457.000000	 3.143020  
456.000000	 2.326146  
455.000000	 1.695441  
454.000000	 1.323772  
453.000000	 1.037674  
452.000000	 0.714705  
451.000000	 0.494067  
450.000000	 0.441201  

